Time:256Hz,Epoch,Channel 1,Channel 2,Channel 3,Channel 4,Channel 5,Channel 6,Channel 7,Channel 8,Channel 9,Channel 10,Channel 11,Channel 12,Channel 13,Channel 14,Event Id,Event Date,Event Duration
0.0000000000,0,-0.0000000000,-0.0000000000,-0.0000000000,-0.0000000000,-0.0000000000,-0.0000000000,-0.0000000000,-0.0000000000,-0.0000000000,-0.0000000000,-0.0000000000,-0.0000000000,-0.0000000000,-0.0000000000,,,
0.0039062500,0,0.0000560087,0.0000451186,0.0000451127,0.0000513339,-0.0000186696,0.0000404498,-0.0000031106,0.0000497816,0.0000420021,0.0001275645,0.0000591134,0.0000902313,0.0000326703,0.0000155590,,,
0.0078125000,0,0.0004773663,0.0003745658,0.0003729694,0.0004628086,-0.0001606784,0.0003756111,-0.0000262530,0.0004854880,0.0004353836,0.0011061812,0.0004864639,0.0007864267,0.0002570615,0.0001002028,,,
0.0117187500,0,0.0019971288,0.0015343243,0.0015210575,0.0020778033,-0.0006907655,0.0017262512,-0.0001052712,0.0023513712,0.0021983494,0.0047098369,0.0019438176,0.0033976137,0.0009644522,0.0002546596,,,
0.0156250000,1,0.0055745797,0.0042691376,0.0042076182,0.0063218649,-0.0020387042,0.0053011516,-0.0002683981,0.0076265526,0.0072763544,0.0133398767,0.0051304969,0.0099149890,0.0023330567,0.0001891492,,,
0.0195312500,1,0.0119109456,0.0094386815,0.0092145518,0.0149427417,-0.0047873887,0.0123458276,-0.0004953377,0.0187979433,0.0179231140,0.0286750778,0.0103310214,0.0224574273,0.0041928788,-0.0007295556,,,
0.0234375000,1,0.0211716950,0.0183675690,0.0176651168,0.0296878137,-0.0097382035,0.0233436977,-0.0007329873,0.0377688734,0.0353592991,0.0503946365,0.0175385778,0.0428659535,0.0062731946,-0.0029662470,,,
0.0273437500,1,0.0331788934,0.0334605346,0.0315938395,0.0520563392,-0.0179446371,0.0372421511,-0.0009940983,0.0646271490,0.0587844077,0.0757545719,0.0273199074,0.0727073216,0.0089425321,-0.0058600171,,,
0.0312500000,2,0.0478515801,0.0582914983,0.0541913254,0.0829551039,-0.0304240138,0.0510717402,-0.0014502508,0.0969421864,0.0858302300,0.0999245755,0.0417116608,0.1133156057,0.0138797269,-0.0068340973,,,
0.0351562500,2,0.0654218729,0.0964337059,0.0891132787,0.1220249706,-0.0473836962,0.0601965051,-0.0024104684,0.1298943824,0.1143621751,0.1165941441,0.0641302268,0.1653127405,0.0240360472,-0.0014477765,,,
0.0390625000,2,0.0860216209,0.1490383484,0.1387049210,0.1666716562,-0.0672152642,0.0592671442,-0.0042059562,0.1569400254,0.1440898336,0.1186340704,0.0977742938,0.2273740362,0.0426370294,0.0153738045,,,
0.0429687500,2,0.1085806027,0.2120836067,0.2015911863,0.2111912534,-0.0858945196,0.0437191004,-0.0071157056,0.1704248805,0.1760898091,0.0990486427,0.1429801221,0.2945655713,0.0714926505,0.0471575154,,,
0.0468750000,3,0.1295713069,0.2747392568,0.2706206288,0.2465503551,-0.0973418309,0.0113555194,-0.0113858502,0.1620133753,0.2099589932,0.0524555557,0.1948559784,0.3570649384,0.1093076109,0.0935811721,,,
0.0507812500,3,0.1425172534,0.3199846228,0.3322952410,0.2612237846,-0.0947562307,-0.0365785726,-0.0172317817,0.1234770166,0.2405278580,-0.0231239104,0.2425908042,0.4001495036,0.1507886133,0.1491336862,,,
0.0546875000,3,0.1387669850,0.3275595664,0.3681930597,0.2431000961,-0.0725328226,-0.0951591486,-0.0247309655,0.0482134983,0.2560311532,-0.1246492531,0.2709451949,0.4058271838,0.1869531741,0.2033232297,,,
0.0585937500,3,0.1094172221,0.2784868266,0.3581591415,0.1820987355,-0.0282357538,-0.1563625747,-0.0335939750,-0.0666075556,0.2385571481,-0.2430890414,0.2635173667,0.3558972306,0.2065702423,0.2423782746,,,
0.0625000000,4,0.0480554655,0.1601801384,0.2847797854,0.0728881751,0.0360958376,-0.2103164289,-0.0427779205,-0.2174013520,0.1677742461,-0.3636224042,0.2069763525,0.2359519421,0.1984748430,0.2521329973,,,
0.0664062500,4,-0.0464056175,-0.0291101184,0.1381965471,-0.0830593794,0.1139524211,-0.2469781271,-0.0500296606,-0.3917064310,0.0280171541,-0.4673503489,0.0950854934,0.0395078793,0.1542650585,0.2214161030,,,
0.0703125000,4,-0.1679841488,-0.2779200850,-0.0802384676,-0.2766777198,0.1956804218,-0.2579170963,-0.0517164178,-0.5674869003,-0.1838123391,-0.5342365394,-0.0688082679,-0.2288514193,0.0706139611,0.1448553451,,,
0.0742187500,4,-0.3038554996,-0.5621107769,-0.3567216357,-0.4918802403,0.2704854793,-0.2379403819,-0.0433404671,-0.7155054535,-0.4532379129,-0.5465333777,-0.2715747272,-0.5522664937,-0.0495006541,0.0242342657,,,
0.0781250000,5,-0.4365513946,-0.8481684918,-0.6664608149,-0.7071656366,0.3283090350,-0.1863320088,-0.0207988287,-0.8046047229,-0.7484684186,-0.4919747563,-0.4922731625,-0.9027092143,-0.1969903774,-0.1317644703,,,
0.0820312500,5,-0.5473519795,-1.0982897235,-0.9771357258,-0.8978613361,0.3611019267,-0.1073999344,0.0180390404,-0.8083125039,-1.0258634109,-0.3663156089,-0.7055747210,-1.2441701421,-0.3582045913,-0.3089970613,,,
0.0859375000,5,-0.6197663729,-1.2759482731,-1.2531669763,-1.0387803254,0.3634580788,-0.0100381157,0.0720985049,-0.7107543478,-1.2386239455,-0.1749948840,-0.8857003759,-1.5372031356,-0.5173630275,-0.4898468400,,,
0.0898437500,5,-0.6421643345,-1.3508303744,-1.4597956496,-1.1071509371,0.3327588414,0.0937318851,0.1366431519,-0.5104286522,-1.3461478772,0.0663737879,-1.0100105165,-1.7438662805,-0.6590727425,-0.6552856860,,,
0.0937500000,6,-0.6091054469,-1.3024988343,-1.5665409205,-1.0855610837,0.2688938146,0.1908819501,0.2035810598,-0.2213181692,-1.3218945712,0.3331025303,-1.0616136172,-1.8321601004,-0.7700562075,-0.7867905156,,,
0.0976562500,6,-0.5214456222,-1.1226241424,-1.5500627447,-0.9644802958,0.1735708077,0.2695599060,0.2623033874,0.1285293629,-1.1582050204,0.5943472800,-1.0307099205,-1.7793710415,-0.8395844082,-0.8680477961,,,
0.1015625000,6,-0.3856042189,-0.8159066958,-1.3965315869,-0.7438678015,0.0494729130,0.3208074446,0.3009284135,0.5005708304,-0.8670175785,0.8174808726,-0.9147776451,-1.5741362024,-0.8588136231,-0.8863701780,,,
0.1054687500,6,-0.2123386671,-0.3998514276,-1.1034003452,-0.4335359104,-0.1000795787,0.3396045404,0.3079451986,0.8510335425,-0.4761721031,0.9729505953,-0.7179769818,-1.2173630601,-0.8198443144,-0.8336946638,,,
0.1093750000,7,-0.0151980174,0.0965629939,-0.6802974060,-0.0522770169,-0.2702507386,0.3253555434,0.2741688644,1.1372340946,-0.0223284158,1.0385047382,-0.4501710234,-0.7222338566,-0.7154407813,-0.7070816630,,,
0.1132812500,7,0.1912101296,0.6353332898,-0.1488204989,0.3739127553,-0.4525238529,0.2820227775,0.1947394452,1.3239452343,0.4570294008,1.0020636554,-0.1258296946,-0.1134604857,-0.5399270625,-0.5088089692,,,
0.1171875000,7,0.3928942482,1.1728682250,0.4587616011,0.8140925582,-0.6322748695,0.2179177130,0.0707860553,1.3885315570,0.9295437319,0.8630772707,0.2370278162,0.5741178680,-0.2911437957,-0.2463053258,,,
0.1210937500,7,0.5777993995,1.6640528414,1.1017143642,1.2348657227,-0.7878777923,0.1448655567,-0.0896442376,1.3237605622,1.3700303851,0.6325627476,0.6177569467,1.2975394646,0.0271229095,0.0679046539,,,
0.1250000000,8,0.7366050918,2.0664564249,1.7337336108,1.6030245592,-0.8928122979,0.0763853520,-0.2717429895,1.1379146164,1.7588630429,0.3320506738,0.9938963164,2.0082931689,0.4030192079,0.4163657472,,,
0.1289062500,8,0.8630224147,2.3442102074,2.3063399182,1.8882397787,-0.9207733497,0.0249224457,-0.4553439504,0.8526712927,2.0786478664,-0.0084579539,1.3420439417,2.6554089269,0.8155489361,0.7773015199,,,
0.1328125000,8,0.9536942426,2.4711406168,2.7725390145,2.0655142675,-0.8520555513,-0.0011123857,-0.6174033778,0.4996461140,2.3114792301,-0.3535175388,1.6390166464,3.1889232217,1.2350689102,1.1258798846,,,
0.1367187500,8,1.0077789998,2.4328398107,3.0904519583,2.1170754657,-0.6787651282,0.0006891482,-0.7350778808,0.1163620067,2.4381696598,-0.6661709110,1.8632900579,3.5634586568,1.6254777019,1.4360114245,,,
0.1406250000,9,1.0262898703,2.2275470422,3.2266717917,2.0335389628,-0.4072732261,0.0265880106,-0.7887958647,-0.2579571128,2.4395598092,-0.9124396621,1.9963883380,3.7416090609,1.9477523830,1.6823179800,,,
0.1445312500,9,1.0112588942,1.8659570672,3.1592049014,1.8144034091,-0.0580344854,0.0681635262,-0.7648204380,-0.5866049180,2.2990339542,-1.0656562458,2.0238470376,3.6968910013,2.1641793507,1.8419481729,,,
0.1484375000,9,0.9647381033,1.3701503744,2.8797405713,1.4680604020,0.3361489751,0.1142300724,-0.6570866634,-0.8394566884,2.0050455049,-1.1097432996,1.9358539140,3.4161456302,2.2426262848,1.8961790367,,,
0.1523437500,9,0.8877187794,0.7717045538,2.3947895690,1.0114307970,0.7329765518,0.1522647828,-0.4683192949,-0.9965548177,1.5529686125,-1.0408832073,1.7280510112,2.9012624369,2.1603884233,1.8319116542,,,
0.1562500000,10,0.7792838595,0.1089762674,1.7253659872,0.4691756295,1.0851968403,0.1695605559,-0.2103764175,-1.0507134023,0.9465784499,-0.8676724505,1.4026257546,2.1699431353,1.9072579672,1.6430326813,,,
0.1601562500,10,0.6363618895,-0.5762661617,0.9053341029,-0.1276147154,1.3471981882,0.1548270403,0.0963939885,-1.0085378398,0.2000703408,-0.6101186945,0.9693200006,1.2552396675,1.4874881708,1.3314173891,,,
0.1640625000,10,0.4542724184,-1.2423591536,-0.0210271003,-0.7432482131,1.4826199653,0.1003673907,0.4249525070,-0.8892732202,-0.6588218985,-0.2975771537,0.4459571767,0.2039156346,0.9204123491,0.9073759703,,,
0.1679687500,10,0.2280825001,-1.8507289525,-1.0015432825,-1.3396543818,1.4708499208,0.0041712536,0.7443923213,-0.7211966081,-1.5852837945,0.0345504659,-0.1417006777,-0.9259660666,0.2396426261,0.3895422173,,,
0.1718750000,11,-0.0453673452,-2.3678127556,-1.9783717617,-1.8788351034,1.3103953546,-0.1289996210,1.0232962545,-0.5360000340,-2.5155330392,0.3493906186,-0.7608100124,-2.0677941072,-0.5090897291,-0.1956468139,,,
0.1757812500,11,-0.3651452130,-2.7658264151,-2.8901936913,-2.3253871015,1.0183966186,-0.2880098494,1.2329788341,-0.3625019512,-3.3691007053,0.6138588809,-1.3730515443,-3.1494623529,-1.2713041776,-0.8147773929,,,
0.1796875000,11,-0.7242102661,-3.0227905434,-3.6750573506,-2.6489301348,0.6270273099,-0.4568935575,1.3501287119,-0.2214722789,-4.0565171816,0.8032860864,-1.9370647428,-4.0971767246,-1.9881275377,-1.4286868723,,,
0.1835937500,11,-1.1082919606,-3.1225027036,-4.2743889960,-2.8262171866,0.1782293327,-0.6167290798,1.3587121178,-0.1229658750,-4.4911574397,0.9038949618,-2.4117451692,-4.8405093287,-2.6013288793,-1.9943724838,,,
0.1875000000,12,-1.4960019661,-3.0550305978,-4.6380271992,-2.8427068678,-0.2819799825,-0.7473126803,1.2512810233,-0.0665320694,-4.6019768439,0.9123746613,-2.7602103325,-5.3186305756,-3.0586381928,-2.4678748986,,,
0.1914062500,12,-1.8601354521,-2.8178526840,-4.7294693332,-2.6935271067,-0.7089444413,-0.8288155694,1.0298533246,-0.0436349975,-4.3438389532,0.8332539823,-2.9538568006,-5.4868411544,-3.3188634729,-2.8081842599,,,
0.1953125000,12,-2.1698105392,-2.4172627609,-4.5302608315,-2.3839335913,-1.0641904315,-0.8440028316,0.7062958563,-0.0411174130,-3.7040717744,0.6759493570,-2.9755812952,-5.3220087709,-3.3561954448,-2.9817517047,,,
0.1992187500,12,-2.3929926735,-1.8694094192,-4.0426644992,-1.9293573413,-1.3192396489,-0.7812124107,0.3019133843,-0.0446488758,-2.7060229151,0.4532720183,-2.8212532436,-4.8255989098,-3.1629891023,-2.9667249799,,,
0.2031250000,13,-2.4990996641,-1.2004809760,-3.2902031767,-1.3549224761,-1.4578787356,-0.6374407989,-0.1539711412,-0.0415117725,-1.4107233973,0.1817794251,-2.4991153497,-4.0236526609,-2.7504492450,-2.7558962454,,,
0.2070312500,13,-2.4616879077,-0.4459031246,-2.3161399979,-0.6941589270,-1.4764697953,-0.4203166580,-0.6263172533,-0.0224455030,0.0839147902,-0.1172940549,-2.0276962102,-2.9640121698,-2.1471685901,-2.3577310941,,,
0.2109375000,13,-2.2614333809,0.3513040872,-1.1803098730,0.0132102407,-1.3823889244,-0.1479850180,-1.0771700680,0.0175125372,1.6487123348,-0.4184043184,-1.4334278765,-1.7118453544,-1.3961517842,-1.7955319494,,,
0.2148437500,13,-1.8894824430,1.1428107450,0.0451461863,0.7241610175,-1.1913000711,0.1531783072,-1.4686421294,0.0790595836,3.1355886154,-0.6943379863,-0.7489861323,-0.3446559305,-0.5512827727,-1.1053412613,,,
0.2187500000,14,-1.3507593229,1.8777979706,1.2807019319,1.3954492999,-0.9242527453,0.4522336267,-1.7659662483,0.1592159484,4.3957458091,-0.9204118520,-0.0125071133,1.0525552792,0.3261745017,-0.3332867317,,,
0.2226562500,14,-0.6663249296,2.5063108257,2.4448198194,1.9864483213,-0.6053084069,0.7176565146,-1.9405842940,0.2521302217,5.2994729766,-1.0783264194,0.7330645595,2.3920548938,1.1712239345,0.4673168303,,,
0.2265625000,14,0.1262173777,2.9831613116,3.4597236548,2.4615888784,-0.2597988724,0.9208338508,-1.9730367041,0.3499674813,5.7523472275,-1.1578891019,1.4415240887,3.5885395283,1.9195908628,1.2393630944,,,
0.2304687500,14,0.9748764354,3.2722676420,4.2574213870,2.7925176063,0.0871213746,1.0387506099,-1.8551447805,0.4439943571,5.7046216822,-1.1561169455,2.0663990958,4.5649525269,2.5133518048,1.9263435287,,,
0.2343750000,15,1.8178973872,3.3509873026,4.7855083511,2.9601194150,0.4119761916,1.0559554575,-1.5909655773,0.5259946683,5.1539448083,-1.0747834473,2.5650634840,5.2585774206,2.9072146019,2.4777955569,,,
0.2382812500,15,2.5900514746,3.2136107948,5.0119224876,2.9562663899,0.6945430496,0.9661115086,-1.1963478495,0.5898442935,4.1437237103,-0.9182051661,2.9029735971,5.6264470339,3.0740601816,2.8549737544,,,
0.2421875000,15,3.2293648702,2.8730213789,4.9277234282,2.7847743174,0.9191890697,0.7733273784,-0.6973690328,0.6326994996,2.7592718474,-0.6925044192,3.0569749668,5.6489957259,3.0082066181,3.0352655982,,,
0.2460937500,15,3.6831445083,2.3598164127,4.5473275229,2.4610015101,1.0756032641,0.4930699873,-0.1281359621,0.6552108956,1.1222088736,-0.4062468407,3.0172141681,5.3313526084,2.7256123085,3.0141223787,,,
0.2500000000,16,3.9126543332,1.7188943382,3.9063325775,2.0100102072,1.1588304934,0.1521174623,0.4717002422,0.6605834841,-0.6178861830,-0.0713192950,2.7879464787,4.7024036336,2.2613958165,2.8042978255,,,
0.2539062500,16,3.8962938606,1.0042814674,3.0576506110,1.4638499139,1.1688511166,-0.2129635331,1.0596134120,0.6528511178,-2.2957031760,0.2970478633,2.3877688155,3.8121800341,1.6657497827,2.4331744520,,,
0.2578125000,16,3.6312837980,0.2733259983,2.0667047400,0.8587251924,1.1100342298,-0.5589702649,1.5930623625,0.6349698237,-3.7463179537,0.6812597476,1.8492517810,2.7279722793,0.9990750924,1.9391728491,,,
0.2617187500,16,3.1337277519,-0.4188413370,1.0060172165,0.2324506885,0.9905644959,-0.8406108954,2.0324515036,0.6071498318,-4.8236635719,1.0625092232,1.2171535990,1.5291279101,0.3263929007,1.3677033947,,,
0.2656250000,17,2.4368572242,-1.0241756593,-0.0508257764,-0.3778789514,0.8216718460,-1.0160032439,2.3439332289,0.5655893658,-5.4186752551,1.4211110689,0.5443363055,0.3004016741,-0.2892032486,0.7665811402,,,
0.2695312500,17,1.5875331453,-1.5058044055,-1.0356307764,-0.9381986458,0.6164692389,-1.0526038033,2.5017328680,0.5018170948,-5.4739943572,1.7357760921,-0.1144619720,-0.8756993793,-0.7936260958,0.1809627158,,,
0.2734375000,17,0.6415444784,-1.8411282042,-1.8916285757,-1.4197261014,0.3884473097,-0.9329320937,2.4898130261,0.4031471920,-4.9923372359,1.9826123637,-0.7094354902,-1.9263027692,-1.1479535115,-0.3514623191,,,
0.2773437500,17,-0.3414160595,-2.0234513017,-2.5778073132,-1.8008510272,0.1499849671,-0.6592093418,2.3029528264,0.2548473222,-4.0364433475,2.1351647663,-1.2009548984,-2.7937029907,-1.3319639786,-0.8038317674,,,
0.2812500000,18,-1.3021908613,-2.0615273019,-3.0705531955,-2.0682369446,-0.0885891165,-0.2557405284,1.9474717445,0.0441376289,-2.7200016136,2.1664844363,-1.5619125023,-3.4380428564,-1.3443168352,-1.1611047268,,,
0.2851562500,18,-2.1854060577,-1.9766871980,-3.3624734966,-2.2168046103,-0.3189474019,0.2321549017,1.4416921883,-0.2347781560,-1.1910978113,2.0533004259,-1.7774445342,-3.8372988457,-1.2001365525,-1.4186578946,,,
0.2890625000,18,-2.9414986623,-1.7979433744,-3.4592468033,-2.2486104149,-0.5337334160,0.7432698997,0.8158822134,-0.5762382834,0.3880819352,1.7813632009,-1.8435238126,-3.9856811357,-0.9275967216,-1.5793874865,,,
0.2929687500,18,-3.5281005478,-1.5563236779,-3.3759257009,-2.1711182665,-0.7251725601,1.2090852680,0.1111511919,-0.9609174255,1.8605337710,1.3503681162,-1.7659557054,-3.8917649523,-0.5647410971,-1.6506670869,,,
0.2968750000,19,-3.9116161870,-1.2801048096,-3.1340059841,-1.9956285855,-0.8842736138,1.5639142910,-0.6231207166,-1.3568712913,3.0890794988,0.7767929570,-1.5603226874,-3.5771347833,-0.1567414147,-1.6422592719,,,
0.3007812500,19,-4.0694739812,-0.9921720558,-2.7598199706,-1.7363931647,-1.0012376809,1.7542429366,-1.3332311830,-1.7235291412,3.9656702821,0.0935939860,-1.2522461309,-3.0754725486,0.2469688755,-1.5654928767,,,
0.3046875000,19,-3.9927252104,-0.7096397615,-2.2838419852,-1.4103631131,-1.0668409893,1.7455402567,-1.9657988714,-2.0172141048,4.4174393020,-0.6531794027,-0.8767919468,-2.4313823060,0.5962247477,-1.4331822757,,,
0.3085937500,19,-3.6879750199,-0.4448581208,-1.7399269405,-1.0370627330,-1.0738520520,1.5261172349,-2.4721768741,-2.1965308547,4.4120790628,-1.4096919930,-0.4761975660,-1.6981651737,0.8442974265,-1.2594435763,,,
0.3125000000,20,-3.1775735793,-0.2066453229,-1.1637076778,-0.6380802482,-1.0176349851,1.1085504415,-2.8120388167,-2.2267048868,3.9628878841,-2.1199065981,-0.0959510239,-0.9342084780,0.9521760880,-1.0589558328,,,
0.3164062500,20,-2.4976185481,-0.0010350372,-0.5901262263,-0.2360113412,-0.8959493320,0.5291015574,-2.9561569172,-2.0830117066,3.1308600031,-2.7301662670,0.2200521847,-0.1982886736,0.8924207697,-0.8459061319,,,
0.3203125000,20,-1.6942118828,0.1684854821,-0.0507268037,0.1469576937,-0.7088059694,-0.1551604926,-2.8887263395,-1.7538967030,2.0201886403,-3.1924270477,0.4343956305,0.4554831452,0.6523928364,-0.6331813423,,,
0.3242187500,20,-0.8190380317,0.3008597064,0.4285493842,0.4905165480,-0.4592932061,-0.8721341619,-2.6093562092,-1.2439528948,0.7655505210,-3.4667008453,0.5204589493,0.9823109456,0.2369165238,-0.4320857749,,,
0.3281250000,21,0.0747416909,0.3971922084,0.8287396877,0.7775849943,-0.1553996074,-1.5431875105,-2.1343127550,-0.5760921972,-0.4866858593,-3.5235432927,0.4658424738,1.3505029714,-0.3298495680,-0.2522905561,,,
0.3320312500,21,0.9358879745,0.4604086164,1.1385467374,0.9955723655,0.1881387314,-2.0930137632,-1.4963362103,0.2081462090,-1.5985259143,-3.3469018070,0.2746117208,1.5442293595,-1.0040792136,-0.1014723815,,,
0.3359375000,21,1.7177526749,0.4949428848,1.3544722811,1.1374325364,0.5489470158,-2.4590689873,-0.7426688237,1.0507844755,-2.4574705770,-2.9369677876,-0.0320582238,1.5649717567,-1.7241981652,0.0154988625,,,
0.3398437500,21,2.3803046768,0.5064642992,1.4804249834,1.2022875784,0.8975229969,-2.5991723037,0.0686075042,1.8820763506,-2.9883138336,-2.3123025942,-0.4171922997,1.4313416963,-2.4152629041,0.0975659282,,,
0.3437500000,22,2.8918737729,0.5018918722,1.5270360513,1.1956161556,1.1994389069,-2.4962467207,0.8736226645,2.6272676962,-3.1582003210,-1.5102020832,-0.8312678488,1.1773437375,-2.9956200134,0.1485010649,,,
0.3476562500,22,3.2308683261,0.4897387348,1.5107400244,1.1290176114,1.4192076594,-2.1597600954,1.6086109618,3.2145728041,-2.9753078517,-0.5844241878,-1.2170809275,0.8492682110,-3.3852831279,0.1775850454,,,
0.3515625000,22,3.3871297249,0.4801702918,1.4521736699,1.0192983496,1.5251270224,-1.6240839599,2.2158103700,3.5830174790,-2.4836032492,0.3996332477,-1.5157717656,0.5011348020,-3.5150510825,0.1992414921,,,
0.3554687500,22,3.3624329999,0.4842713864,1.3736780302,0.8867243772,1.4941362051,-0.9443321481,2.6486148558,3.6890039763,-1.7557661306,1.3714613881,-1.6734160159,0.1888631934,-3.3351664285,0.2313218243,,,
0.3593750000,23,3.1698665823,0.5124958977,1.2961932718,0.7525904336,1.3158787668,-0.1902877900,2.8754765097,3.5108727413,-0.8851492712,2.2626117992,-1.6474942859,-0.0362212572,-2.8224199438,0.2923159133,,,
0.3632812500,23,2.8319110889,0.5722409672,1.2358247410,0.6363434887,0.9954378571,0.5611679000,2.8822099082,3.0508889415,0.0225870699,3.0131566174,-1.4126210165,-0.1339818090,-1.9850418504,0.3977616134,,,
0.3671875000,23,2.3774418618,0.6649080701,1.2005974543,0.5526411336,0.5543760875,1.2346941600,2.6726263723,2.3346856931,0.8583725933,3.5762396096,-0.9648971585,-0.0814262233,-0.8648905276,0.5563828505,,,
0.3710937500,23,1.8384816328,0.7836423473,1.1883956862,0.5089552785,0.0297637340,1.7652750139,2.2677142042,1.4089777065,1.5201793241,3.9204049836,-0.3241612501,0.1231527611,0.4637088796,0.7670204636,,,
0.3750000000,24,1.2474703599,0.9127120675,1.1868284822,0.5042234733,-0.5288141135,2.1059679017,1.7035948745,0.3382152532,1.9247936381,4.0301063718,0.4663878872,0.4587784712,1.8988403678,1.0172985039,,,
0.3789062500,24,0.6353808006,1.0287347007,1.1751008072,0.5287641917,-1.0639814913,2.2335417798,1.0284000473,-0.7996282057,2.0191295757,3.9048883611,1.3432951452,0.8833934718,3.3193061249,1.2843954397,,,
0.3828125000,24,0.0307132153,1.1037274394,1.1275110653,0.5655224653,-1.5168739779,2.1509170649,0.2982161374,-1.9180130988,1.7890829669,3.5574924600,2.2283642372,1.3383210309,4.5956121376,1.5377041215,,,
0.3867187500,24,-0.5410223632,1.1095651712,1.0177686381,0.5924830404,-1.8346805519,1.8856208540,-0.4276987637,-2.9276711702,1.2638024340,3.0110161564,3.0358611464,1.7550098076,5.6024381193,1.7425626933,,,
0.3906250000,25,-1.0580095119,1.0227752376,0.8231516788,0.5857827882,-1.9782513735,1.4844367867,-1.0920778194,-3.7437047811,0.5134452858,2.2955498889,3.6804468865,2.0630691665,6.2310714715,1.8640334931,,,
0.3945312500,25,-1.5032511528,0.8285635806,0.5279601096,0.5230133119,-1.9280512573,1.0054410739,-1.6446518243,-4.2937769937,-0.3599459832,1.4452846903,4.0850747060,2.1986417356,6.4004550164,1.8701956578,,,
0.3984375000,25,-1.8655805403,0.5235201618,0.1263365062,0.3864188403,-1.6870578848,0.5091242006,-2.0463789230,-4.5262021540,-1.2367203230,0.4973093903,4.1885263867,2.1124545944,6.0660278331,1.7351286773,,,
0.4023437500,25,-2.1397231215,0.1170024861,-0.3752891231,0.1658521456,-1.2801079626,0.0502465947,-2.2723618020,-4.4160923413,-1.9959780656,-0.5073320512,3.9524637886,1.7770043581,5.2259403389,1.4420999492,,,
0.4062500000,26,-2.3250579363,-0.3686175237,-0.9562456973,-0.1387244313,-0.7501052043,-0.3283425558,-2.3131450652,-3.9679149419,-2.5308157653,-1.5211056076,3.3675737583,1.1921603489,3.9242011285,0.9871970911,,,
0.4101562500,26,-2.4235802112,-0.8988620409,-1.5808440238,-0.5156191332,-0.1520367095,-0.5992531568,-2.1744085602,-3.2139190976,-2.7602323098,-2.4879606018,2.4577905459,0.3882099069,2.2499852511,0.3829119310,,,
0.4140625000,26,-2.4381870734,-1.4295237060,-2.1997397513,-0.9412817230,0.4541232117,-0.7513224678,-1.8753958005,-2.2094308392,-2.6369042489,-3.3440302386,1.2811357005,-0.5747408010,0.3320835396,-0.3396001412,,,
0.4179687500,26,-2.3722730935,-1.9107966782,-2.7540564628,-1.3821793667,1.0105758129,-0.7880212455,-1.4465716531,-1.0270337001,-2.1511338761,-4.0221499178,-0.0740428013,-1.6117887012,-1.6720915106,-1.1310948946,,,
0.4218750000,27,-2.2304470371,-2.2928871015,-3.1819334072,-1.7985179312,1.4679136905,-0.7245823741,-0.9268532440,0.2488598786,-1.3316002921,-4.4591503940,-1.4973355336,-2.6223584720,-3.5919047723,-1.9282444346,,,
0.4257812500,27,-2.0190890630,-2.5320886835,-3.4261794766,-2.1488144827,1.7896185161,-0.5849845229,-0.3604754491,1.5272360676,-0.2431489882,-4.6035696261,-2.8673344385,-3.5016832167,-5.2605313428,-2.6600674518,,,
0.4296875000,27,-1.7458634555,-2.5960638423,-3.4414997718,-2.3942007349,1.9545757558,-0.3990745729,0.2065036424,2.7165896393,1.0185220038,-4.4222030538,-4.0633388576,-4.1524005384,-6.5307852770,-3.2550462093,,,
0.4335937500,27,-1.4184753316,-2.4674562234,-3.2003415608,-2.5019194475,1.9577077302,-0.1995193081,0.7298535066,3.7320400809,2.3350796429,-3.9052632994,-4.9763386371,-4.4947175097,-7.2882186468,-3.6478838953,,,
0.4375000000,28,-1.0435885962,-2.1456110522,-2.6970868627,-2.4481075654,1.8089332321,-0.0184717802,1.1705995465,4.5020969182,3.5759245487,-3.0701851721,-5.5188340319,-4.4745910179,-7.4611410195,-3.7858819514,,,
0.4414062500,28,-0.6267187626,-1.6467409762,-1.9505946826,-2.2201925651,1.5307231900,0.1158166227,1.4978443946,4.9733515923,4.6098618323,-1.9635791508,-5.6333690817,-4.0699043107,-7.0275632651,-3.6351854955,,,
0.4453125000,28,-0.1733608418,-1.0030618444,-1.0049431422,-1.8189930468,1.1546028442,0.1820827572,1.6907236393,5.1123360060,5.3173106027,-0.6604182245,-5.2992990982,-3.2944819630,-6.0187080198,-3.1865297163,,,
0.4492187500,28,0.3090171898,-0.2611147087,0.0721106545,-1.2601825063,0.7170573159,0.1685274223,1.7394241840,4.9052417857,5.6021753546,0.7402622698,-4.5367227357,-2.1992677019,-4.5181967830,-2.4592284082,,,
0.4531250000,29,0.8088871290,0.5210725789,1.1935967889,-0.5744848480,0.2554525279,0.0744316333,1.6453430238,4.3570922498,5.4023028161,2.1231802807,-3.4062973674,-0.8696682105,-2.6559777914,-1.5017747374,,,
0.4570312500,29,1.3093540926,1.2786226188,2.2610735943,0.1939916284,-0.1953139368,-0.0893727055,1.4205103561,3.4917168909,4.6974241673,3.3674156113,-2.0041709577,0.5816113645,-0.5967843884,-0.3880184216,,,
0.4609375000,29,1.7882213214,1.9463521692,3.1751117799,0.9913929890,-0.6050054466,-0.3015255597,1.0863786828,2.3526068717,3.5136011358,4.3585052017,-0.4524299300,2.0258355137,1.4758120567,0.7906657569,,,
0.4648437500,29,2.2193674053,2.4661456619,3.8468729188,1.7590951006,-0.9493453425,-0.5328549142,0.6720565822,1.0033392301,1.9233392467,5.0003898954,1.1133412865,3.3318878559,3.3775644061,1.9353547619,,,
0.4687500000,30,2.5749870870,2.7936440816,4.2087952754,2.4391229443,-1.2108326772,-0.7504476671,0.2120736118,-0.4738007716,0.0409972464,5.2257071134,2.5575165644,4.3801457264,4.9415369057,2.9497689112,,,
0.4726562500,30,2.8284286927,2.9034806638,4.2230241194,2.9795077755,-1.3789122144,-0.9222048506,-0.2561953756,-1.9812532895,-1.9861098981,5.0033725673,3.7575296391,5.0749782856,6.0340428780,3.7497636243,,,
0.4765625000,30,2.9572969571,2.7925265851,3.8865670354,3.3391054287,-1.4494541928,-1.0210806228,-0.6952652226,-3.4115744228,-3.9901333559,4.3426722753,4.6153587246,5.3545317937,6.5669928001,4.2713291655,,,
0.4804687500,30,2.9460130001,2.4800750747,3.2320922738,3.4910275598,-1.4242829357,-1.0285617706,-1.0702398721,-4.6550342607,-5.7977574854,3.2933110505,5.0660279842,5.1964008796,6.5053963035,4.4758156297,,,
0.4843750000,31,2.7871762719,2.0044405787,2.3240550942,3.4241522347,-1.3112730401,-0.9370410188,-1.3513389298,-5.6090594611,-7.2464742541,1.9413971518,5.0824078004,4.6185674270,5.8695039326,4.3518196388,,,
0.4882812500,31,2.4818491030,1.4169269359,1.2511126230,3.1429885030,-1.1245356517,-0.7507807663,-1.5161573484,-6.1880882639,-8.2000136258,0.4018901780,4.6764310818,3.6761893870,4.7317879422,3.9143891322,,,
0.4921875000,31,2.0391548873,0.7746240975,0.1161795658,2.6663940266,-0.8840701150,-0.4853788802,-1.5514882161,-6.3322892542,-8.5610508383,-1.1917128876,3.8970088139,2.4551434291,3.2092525962,3.2023099701,,,
0.4960937500,31,1.4754121144,0.1332222489,-0.9746822365,2.0254721606,-0.6146284190,-0.1658743913,-1.4544882221,-6.0140742151,-8.2799656008,-2.6995862904,2.8248258323,1.0630614914,1.4516957588,2.2738307697,,,
0.5000000000,32,0.8131370972,-0.4589260743,-1.9232739253,1.2610357609,-0.3434271565,0.1762714788,-1.2331017690,-5.2417281858,-7.3592046409,-3.9887333922,1.5641916674,-0.3812596331,-0.3733812063,1.2011636945,,,
0.5039062500,32,0.0803106014,-0.9645855485,-2.6490218547,0.4209418962,-0.0966308964,0.5070366919,-0.9057824552,-4.0599517878,-5.8537144588,-4.9458513059,0.2323382890,-1.7590356634,-2.0980017321,0.0641808367,,,
0.5078125000,32,-0.6899508368,-1.3592524501,-3.0964727463,-0.4427718709,0.1044028257,0.7940496702,-0.5004389437,-2.5474355276,-3.8679755411,-5.4880387332,-1.0524606582,-2.9619819368,-3.5704163616,-1.0559767524,,,
0.5117187500,32,-1.4594174880,-1.6310178690,-3.2393336515,-1.2770583515,0.2458965691,1.0103666065,-0.0523851737,-0.8114256777,-1.5490342394,-5.5694276721,-2.1816043042,-3.9006218758,-4.6679110326,-2.0822784359,,,
0.5156250000,33,-2.1848852865,-1.7790255582,-3.0803725203,-2.0311250689,0.3232691983,1.1371258955,0.3988091505,1.0207595700,0.9255884378,-5.1831390527,-3.0641259268,-4.5096124116,-5.3043054341,-2.9456191288,,,
0.5195312500,33,-2.8195661536,-1.8111797356,-2.6482331287,-2.6595594112,0.3419218260,1.1651630078,0.8133740653,2.8125482009,3.3647774054,-4.3601120250,-3.6325963477,-4.7508207919,-5.4342235370,-3.5879832539,,,
0.5234375000,33,-3.3168075513,-1.7419441587,-1.9933242555,-3.1252739586,0.3167799757,1.0962034535,1.1557171923,4.4296903268,5.5826365770,-3.1669563483,-3.8484959735,-4.6154370761,-5.0569600469,-3.9662935961,,,
0.5273437500,33,-3.6352957192,-1.5902248196,-1.1833897860,-3.4019498871,0.2698899444,0.9433774902,1.3981170469,5.7509266164,7.4150733364,-1.7022734010,-3.7060672346,-4.1247651836,-4.2184607525,-4.0564458417,,,
0.5312500000,34,-3.7436585265,-1.3768841391,-0.2976508822,-3.4754492396,0.2263599710,0.7299350815,1.5229101392,6.6767211931,8.7316503889,-0.0889484795,-3.2320068460,-3.3281876636,-3.0071820435,-3.8556643515,,,
0.5351562500,34,-3.6237545665,-1.1223702940,0.5805832048,-3.3442203552,0.2097837235,0.4858707667,1.5232138649,7.1358189960,9.4431418983,1.5376702944,-2.4808321599,-2.2982254900,-1.5433209375,-3.3825510085,,,
0.5390625000,34,-3.2732730264,-0.8453605195,1.3714297348,-3.0191395204,0.2380440204,0.2433088507,1.4026789773,7.0897961998,9.5061159586,3.0431124563,-1.5281601745,-1.1240176691,0.0351609756,-2.6756228727,,,
0.5429687500,34,-2.7078176451,-0.5624269875,2.0048603080,-2.5229391254,0.3199328248,0.0316479048,1.1745493685,6.5358101143,8.9249013419,4.3062603824,-0.4636265190,0.0958330761,1.5864502301,-1.7909247516,,,
0.5468750000,35,-1.9616809498,-0.2879167725,2.4257929720,-1.8889944260,0.4530899631,-0.1267859649,0.8601167017,5.5076832906,7.7506272663,5.2297951264,0.6162765506,1.2609426473,2.9771237467,-0.7984743059,,,
0.5507812500,35,-1.0862001342,-0.0333187255,2.5981753852,-1.1591963208,0.6239899151,-0.2199533077,0.4866822212,4.0751941695,6.0769950092,5.7481080891,1.6159346279,2.2774437902,4.0924469079,0.2230280613,,,
0.5546875000,35,-0.1452167065,0.1938338447,2.5081995795,-0.3808801756,0.8104700652,-0.2475768880,0.0851952487,2.3409958267,4.0326425952,5.8321319912,2.4490958987,3.0664449774,4.8449577211,1.1932472444,,,
0.5585937500,35,0.7916423115,0.3907082246,2.1661204086,0.3968532656,0.9864273318,-0.2204110390,-0.3122599118,0.4343274176,1.7703622219,5.4903200907,3.0472048470,3.5714371412,5.1811227172,2.0380144397,,,
0.5625000000,36,1.6562808751,0.5587058777,1.6057653707,1.1268352383,1.1272553259,-0.1573048011,-0.6749890897,-1.4989299022,-0.5459350868,4.7653458642,3.3658720331,3.7632168288,5.0851814363,2.6962546077,,,
0.5664062500,36,2.3885521122,0.7016911616,0.8812202173,1.7670094582,1.2141047437,-0.0807286516,-0.9760719246,-3.3091920946,-2.7549103898,3.7271202101,3.3880136803,3.6414842784,4.5792216026,3.1247407635,,,
0.5703125000,36,2.9410893228,0.8237448466,0.0611116487,2.2828904459,1.2355999581,-0.0119363056,-1.1943824132,-4.8571885395,-4.7102387125,2.4637820885,3.1233293556,3.2332309343,3.7192101139,3.3003727580,,,
0.5742187500,36,3.2825939741,0.9275303948,-0.7783647599,2.6493908494,1.1869743694,0.0330167563,-1.3160155722,-6.0266231571,-6.2903511699,1.0726053010,2.6049268244,2.5886669149,2.5876485172,3.2205419736,,,
0.5781250000,37,3.3997221389,1.0137182706,-1.5605492209,2.8520802634,1.0677995725,0.0455447278,-1.3350178516,-6.7336987094,-7.4050652358,-0.3479482892,1.8843201469,1.7754626926,1.2841401560,2.9022715368,,,
0.5820312500,37,3.2973641644,1.0809647669,-2.2150235344,2.8876675005,0.8797934765,0.0247765970,-1.2535025563,-6.9330248318,-7.9996539377,-1.7049146025,1.0256845247,0.8717665330,-0.0847601982,2.3803203868,,,
0.5859375000,37,2.9969676184,1.1255851401,-2.6838298423,2.7633908832,0.6256246140,-0.0240149597,-1.0813211457,-6.6203701694,-8.0571590515,-2.9167292678,0.0997075046,-0.0416614228,-1.4152891322,1.7039727475,,,
0.5898437500,37,2.5329739808,1.1406615421,-2.9269264770,2.4953064566,0.3088823670,-0.0921124739,-0.8353829969,-5.8327230356,-7.5991925682,-3.9184268945,-0.8227552033,-0.8895211006,-2.6149138251,0.9323549673,,,
0.5937500000,38,1.9481476421,1.1153573437,-2.9260558606,2.1059425951,-0.0649720174,-0.1701548572,-0.5385310957,-4.6455063936,-6.6846068797,-4.6652857507,-1.6766378433,-1.6090611827,-3.6086722254,0.1287530184,,,
0.5976562500,38,1.2889682674,1.0357101893,-2.6860010114,1.6219935018,-0.4868958533,-0.2500449837,-0.2177604245,-3.1663435125,-5.4049744412,-5.1336351608,-2.4072936930,-2.1548808552,-4.3428185475,-0.6450432717,,,
0.6015625000,38,0.6020114921,0.8876035581,-2.2327498713,1.0725157402,-0.9421678977,-0.3254759917,0.0983239441,-1.5250568820,-3.8762147876,-5.3183057786,-2.9730627659,-2.5007403224,-4.7856995836,-1.3333821234,,,
0.6054687500,38,-0.0684569899,0.6613314504,-1.6090833179,0.4877074267,-1.4086741736,-0.3913696828,0.3825808659,0.1394172791,-2.2268174806,-5.2277794935,-3.3458072512,-2.6387047628,-4.9264717589,-1.8900047226,,,
0.6093750000,39,-0.6821526338,0.3561106292,-0.8688891711,-0.1019344825,-1.8566425774,-0.4431454388,0.6123737793,1.6933453457,-0.5843722282,-4.8792752750,-3.5101780708,-2.5767289543,-4.7726802873,-2.2802665476,,,
0.6132812500,39,-1.2044636123,-0.0172334766,-0.0715850761,-0.6663809650,-2.2506250383,-0.4767581738,0.7719073692,3.0212722642,0.9371497298,-4.2957987180,-3.4625551739,-2.3358433010,-4.3475921997,-2.4829729198,,,
0.6171875000,39,-1.6085823701,-0.4363795067,0.7225717737,-1.1770061940,-2.5536264094,-0.4897051052,0.8534123820,4.0357331466,2.2470990410,-3.5057046617,-3.2102161575,-1.9475047676,-3.6876502241,-2.4920905851,,,
0.6210937500,39,-1.8777735359,-0.8702082341,1.4563139979,-1.6077520755,-2.7322128956,-0.4821752179,0.8571572458,4.6825772845,3.2835382386,-2.5437017409,-2.7707314896,-1.4509619311,-2.8399002710,-2.3178482126,,,
0.6250000000,40,-2.0068787811,-1.2829340992,2.0787906345,-1.9363767635,-2.7608326410,-0.4569424344,0.7906194048,4.9420142712,4.0140820100,-1.4516007988,-2.1713003382,-0.8902365532,-1.8591227004,-1.9863134046,,,
0.6289062500,40,-2.0022317766,-1.6382595855,2.5488042388,-2.1456546216,-2.6240991466,-0.4173272218,0.6671923033,4.8261769858,4.4327376121,-0.2778645933,-1.4477953633,-0.3106964411,-0.8046639329,-1.5368469843,,,
0.6328125000,40,-1.8799759771,-1.9027118600,2.8374379934,-2.2246253586,-2.3175115185,-0.3647180554,0.5045319451,4.3744153222,4.5542993650,0.9235562275,-0.6433253006,0.2443168458,0.2628458735,-1.0176163858,,,
0.6367187500,40,-1.6634903300,-2.0482641846,2.9295084679,-2.1699374775,-1.8481703482,-0.2981592508,0.3224659622,3.6475681670,4.4085182845,2.0942439445,0.1939141428,0.7363830504,1.2848075647,-0.4799660456,,,
0.6406250000,41,-1.3805212548,-2.0547228743,2.8238919469,-1.9868915716,-1.2359333389,-0.2164549382,0.1406326574,2.7219393811,4.0355994340,3.1724985827,1.0136178299,1.1344748933,2.2080080602,0.0274505586,,,
0.6445312500,41,-1.0602234904,-1.9119124672,2.5332538178,-1.6896103691,-0.5137485597,-0.1208295866,-0.0236544253,1.6832523182,3.4834602963,4.0958734811,1.7670967026,1.4172732685,2.9879147605,0.4640894871,,,
0.6484375000,41,-0.7302308349,-1.6211637860,2.0834750575,-1.3000837204,0.2743637190,-0.0159871452,-0.1568657115,0.6206950535,2.8064103836,4.8057024659,2.4114142752,1.5752567865,3.5915707788,0.8019621384,,,
0.6523437500,41,-0.4140018547,-1.1956397377,1.5124839826,-0.8462826333,1.0780241056,0.0911911222,-0.2499432869,-0.3790126773,2.0642171122,5.2530412042,2.9132297525,1.6119483365,3.9995089767,1.0285717759,,,
0.6562500000,42,-0.1288567633,-0.6595246278,0.8678087297,-0.3598479114,1.8465942677,0.1943447301,-0.2984507838,-1.2376620140,1.3201050519,5.4045391439,3.2514105636,1.5433938621,4.2060397303,1.1477356609,,,
0.6601562500,42,0.1147655431,-0.0465368294,0.2022967357,0.1260835083,2.5344578112,0.2898092402,-0.3024920998,-1.8916122828,0.6365056860,5.2466613012,3.4176446637,1.3951963087,4.2175413859,1.1777753128,,,
0.6640625000,42,0.3125187596,0.6018478311,-0.4318090922,0.5786383595,3.1038459381,0.3767929029,-0.2665352430,-2.2973766435,0.0684318592,4.7873812971,3.4149184915,1.1973092729,4.0490392958,1.1470506483,,,
0.6679687500,42,0.4641796583,1.2386189577,-0.9891908204,0.9667790503,3.5251690554,0.4554852694,-0.1990330712,-2.4358763122,-0.3441100552,4.0555036894,3.2546260961,0.9779712576,3.7201996992,1.0877209050,,,
0.6718750000,43,0.5715277708,1.8144915028,-1.4362985054,1.2632318701,3.7762232437,0.5243856073,-0.1115968580,-2.3143483026,-0.5821219099,3.0984831401,2.9536831479,0.7588462228,3.2523439085,1.0294308028,,,
0.6757812500,43,0.6371249730,2.2825013470,-1.7533321928,1.4470815254,3.8418481292,0.5786212299,-0.0175697818,-1.9651857307,-0.6497530714,1.9795167621,2.5327844031,0.5529279397,2.6676261859,0.9946214830,,,
0.6796875000,43,0.6642626350,2.6032757594,-1.9334339380,1.5066383288,3.7146110874,0.6104159265,0.0698405309,-1.4417944638,-0.5720841330,0.7739301138,2.0159022048,0.3652446567,1.9901286151,0.9961672299,,,
0.6835937500,43,0.6574155343,2.7495082956,-1.9805052276,1.4415838781,3.3958488561,0.6115965735,0.1393691554,-0.8124670419,-0.3901252166,-0.4358233900,1.4300503612,0.1949979266,1.2472280573,1.0367583649,,,
0.6875000000,44,0.6222699533,2.7083117463,-1.9072007894,1.2634440817,2.8960006465,0.5769044647,0.1828820408,-0.1536135967,-0.1553321416,-1.5671279727,0.8041520751,0.0375828984,0.4693908069,1.1089303061,,,
0.6914062500,44,0.5649315307,2.4811906002,-1.7335366593,0.9941046497,2.2338742417,0.5065630871,0.1957436919,0.4568770581,0.0751628731,-2.5456745589,0.1667463994,-0.1140514684,-0.3121309351,1.1952578688,,,
0.6953125000,44,0.4907271825,2.0825297647,-1.4853173004,0.6628916223,1.4355320463,0.4070824610,0.1766566581,0.9463342455,0.2432667136,-3.3136813138,-0.4565405892,-0.2681113763,-1.0684296079,1.2693302583,,,
0.6992187500,44,0.4034249423,1.5378807306,-1.1914077566,0.3031817793,0.5338247560,0.2901612217,0.1274471590,1.2546194806,0.2961094490,-3.8355914324,-1.0444078896,-0.4319271229,-1.7748808715,1.2986067623,,,
0.7031250000,45,0.3054509066,0.8827240245,-0.8798408404,-0.0506488725,-0.4311197816,0.1702562557,0.0529934687,1.3418841571,0.1941826464,-4.0997476084,-1.5795432844,-0.6091617098,-2.4107985172,1.2495729282,,,
0.7070312500,45,0.1990430917,0.1613219009,-0.5739102617,-0.3657167873,-1.4113072289,0.0616988234,-0.0389220944,1.1952705457,-0.0802754707,-4.1161683982,-2.0471556008,-0.7972339416,-2.9575008591,1.0942226052,,,
0.7109375000,45,0.0877295337,-0.5753750635,-0.2897448082,-0.6128813817,-2.3516298319,-0.0238172207,-0.1381782462,0.8322621467,-0.5179034279,-3.9119329614,-2.4337223010,-0.9862293439,-3.3966530858,0.8158804606,,,
0.7148437500,45,-0.0225989140,-1.2734970425,-0.0361271665,-0.7691437047,-3.1929087373,-0.0788554103,-0.2334012802,0.2989114747,-1.0826203995,-3.5259766605,-2.7269668551,-1.1599421612,-3.7104384698,0.4125742641,,,
0.7187500000,46,-0.1234579469,-1.8814090528,0.1838909935,-0.8201615506,-3.8769983922,-0.1008827760,-0.3133924116,-0.3371533785,-1.7181695502,-3.0043880894,-2.9170552967,-1.2986567946,-3.8836840316,-0.1025925467,,,
0.7226562500,46,-0.2044583408,-2.3550454659,0.3707869149,-0.7623329500,-4.3527501837,-0.0922379084,-0.3686249645,-0.9971732865,-2.3583465583,-2.3963799503,-2.9981421619,-1.3826017122,-3.9066830698,-0.7032929095,,,
0.7265625000,46,-0.2548134957,-2.6620998439,0.5268036202,-0.6037443520,-4.5814472376,-0.0598272588,-0.3925896220,-1.6023933310,-2.9371145863,-1.7506721221,-2.9692999342,-1.3950870632,-3.7771093722,-1.3527815952,,,
0.7304687500,46,-0.2654591895,-2.7843938811,0.6548758480,-0.3635805022,-4.5408599416,-0.0147587611,-0.3827944262,-2.0834778709,-3.3957396995,-1.1121060886,-2.8344333249,-1.3249027125,-3.5002084695,-2.0068367919,,,
0.7343750000,47,-0.2313395871,-2.7185521563,0.7579056765,-0.0700637805,-4.2277510406,0.0282149161,-0.3411937742,-2.3870572704,-3.6864426211,-0.5185592891,-2.6014225007,-1.1679907932,-3.0876006660,-2.6167676638,,,
0.7382812500,47,-0.1531297065,-2.4754773161,0.8380829973,0.2426793243,-3.6589128788,0.0518189476,-0.2738319211,-2.4795076040,-3.7740456097,0.0016203629,-2.2809902242,-0.9283903994,-2.5555983050,-3.1327376236,,,
0.7421875000,47,-0.0376483779,-2.0789686158,0.8963658700,0.5383341194,-2.8706048925,0.0382960255,-0.1896456320,-2.3485898301,-3.6373710413,0.4314696091,-1.8856435636,-0.6182084409,-1.9236609534,-3.5074190123,,,
0.7460937500,47,0.1033326651,-1.5635210359,0.9324649849,0.7822658798,-1.9160371140,-0.0276382820,-0.0986521686,-2.0033544216,-3.2709039801,0.7664609640,-1.4287836162,-0.2563501896,-1.2130522565,-3.6996462754,,,
0.7500000000,48,0.2554139836,-0.9712582699,0.9454267174,0.9451850171,-0.8607599309,-0.1554344906,-0.0100154169,-1.4723060232,-2.6858310029,1.0145792166,-0.9239686402,0.1338697208,-0.4456166256,-3.6777175324,,,
0.7539062500,48,0.4039556050,-0.3481574061,0.9344237075,1.0062543819,0.2235249286,-0.3457878665,0.0694363202,-0.7997814450,-1.9092383765,1.1949484590,-0.3844172387,0.5275683052,0.3570573354,-3.4222879627,,,
0.7578125000,48,0.5354566824,0.2599791820,0.8991133694,0.9552335610,1.2655430657,-0.5889436082,0.1358633377,-0.0409080330,-0.9810951330,1.3343331211,0.1770211430,0.9006611354,1.1735004696,-2.9290027351,,,
0.7617187500,48,0.6375514746,0.8111979401,0.8391939121,0.7933063254,2.2000707984,-0.8646354319,0.1882433520,0.7440117811,0.0501872109,1.4612349029,0.7472367468,1.2311269346,1.9809076234,-2.2108337267,,,
0.7656250000,49,0.6982481948,1.2702411075,0.7534498140,0.5325309043,2.9718509499,-1.1436389157,0.2277081751,1.4947803348,1.1322349510,1.5984669704,1.3116728960,1.4992605004,2.7528469273,-1.2995938415,,,
0.7695312500,49,0.7056599189,1.6104710732,0.6391557174,0.1942640881,3.5380253434,-1.3906663127,0.2567818102,2.1557924194,2.2121072477,1.7564276443,1.8531157168,1.6876788408,3.4574881305,-0.2456843993,,,
0.7734375000,49,0.6491976819,1.8151499006,0.4926780439,-0.1929169569,3.8699294012,-1.5682442277,0.2787191337,2.6798010796,3.2382327916,1.9297217350,2.3512359053,1.7819673439,4.0578241075,0.8847628314,,,
0.7773437500,49,0.5221294167,1.8783821258,0.3113624621,-0.5955114639,3.9548544469,-1.6411626676,0.2968881095,3.0310865617,4.1612022553,2.0985947901,2.7833866557,1.7722549539,4.5143781523,2.0153745862,,,
0.7812500000,50,0.3243104514,1.8055944271,0.0958141224,-0.9777142360,3.7974647918,-1.5810001871,0.3140163610,3.1877365506,4.9340044425,2.2343580104,3.1264258835,1.6550891427,4.7894058044,3.0665477621,,,
0.7851562500,50,0.0635973238,1.6129160996,-0.1487532663,-1.3045658070,3.4197459946,-1.3702086483,0.3312281961,3.1424531697,5.5122128483,2.3061226845,3.3586782214,1.4344811877,4.8508190165,3.9622447136,,,
0.7890625000,50,-0.2448040667,1.3249069077,-0.4128644826,-1.5455293738,2.8584679241,-1.0053493097,0.3470881028,2.9016507474,5.8545554468,2.2861192299,3.4612120894,1.1214001317,4.6747205753,4.6353145844,,,
0.7929687500,50,-0.5805699438,0.9709437969,-0.6843947183,-1.6779000152,2.1602991278,-0.4991823516,0.3571413919,2.4834196459,5.9244750206,2.1526099247,3.4184310130,0.7320648027,4.2469884875,5.0313841010,,,
0.7968750000,51,-0.9207321830,0.5815594039,-0.9501163936,-1.6891661890,1.3760846288,0.1187219559,0.3544322144,1.9154647804,5.6934365872,1.8914192869,3.2188610105,0.2862572049,3.5653489143,5.1123784845,,,
0.8007812500,51,-1.2411770033,0.1861548505,-1.1960036370,-1.5776575603,0.5562483462,0.8032687626,0.3310868497,1.2337985931,5.1462451141,1.4977979190,2.8570951674,-0.1932138686,2.6428300939,4.8605358725,,,
0.8046875000,51,-1.5169256304,-0.1875010194,-1.4062457785,-1.3514965495,-0.2515910362,1.4973091461,0.2805050124,0.4819602272,4.2873101371,0.9793368934,2.3369516102,-0.6798378463,1.5118264538,4.2825253852,,,
0.8085937500,51,-1.7220461973,-0.5129220353,-1.5621358095,-1.0265839890,-1.0031663529,2.1371343506,0.1993866120,-0.2902960919,3.1454416544,0.3589486412,1.6747068249,-1.1426577350,0.2266775056,3.4120883361,,,
0.8125000000,52,-1.8304389361,-0.7651820283,-1.6423385165,-0.6245582861,-1.6575657276,2.6593231974,0.0889450307,-1.0298174342,1.7746611932,-0.3241032457,0.9007183617,-1.5469492135,-1.1372066207,2.3095184635,,,
0.8164062500,52,-1.8181695986,-0.9226691517,-1.6252837285,-0.1712300675,-2.1778397039,3.0080405226,-0.0449193870,-1.6844427126,0.2500984098,-1.0167816007,0.0582433426,-1.8570494322,-2.4882537817,1.0573078756,,,
0.8203125000,52,-1.6670064845,-0.9699954513,-1.4932054506,0.3046690605,-2.5325888861,3.1419417207,-0.1923280648,-2.2080752514,-1.3396845939,-1.6586321929,-0.8005907631,-2.0408048532,-3.7267808692,-0.2474358799,,,
0.8242187500,52,-1.3681330044,-0.9009381563,-1.2365405140,0.7728904055,-2.6983180129,3.0399052840,-0.3407078638,-2.5652351935,-2.9012209126,-2.1904512755,-1.6206486000,-2.0743074565,-4.7547195435,-1.5024790369,,,
0.8281250000,53,-0.9250595839,-0.7203344959,-0.8574122633,1.2034685179,-2.6622260780,2.7046994778,-0.4763718347,-2.7343164435,-4.3431391892,-2.5629937421,-2.3500477902,-1.9457105063,-5.4858186941,-2.6105408962,,,
0.8320312500,53,-0.3552824540,-0.4444888226,-0.3714663408,1.5687428050,-2.4251451857,2.1635616192,-0.5861907489,-2.7094204004,-5.5808288266,-2.7438130509,-2.9456330420,-1.6576093415,-5.8554627449,-3.4889597485,,,
0.8359375000,53,0.3093605167,-0.1002235384,0.1921445122,1.8452270030,-2.0041252802,1.4649723606,-0.6591761521,-2.5009320760,-6.5395045394,-2.7213135098,-3.3769859052,-1.2280193070,-5.8290939974,-4.0780806284,,,
0.8398437500,53,1.0236907440,0.2771756051,0.7925855897,2.0150672532,-1.4336956791,0.6718801741,-0.6877648760,-2.1348401004,-7.1569534565,-2.5059019889,-3.6286129993,-0.6899853080,-5.4077682732,-4.3473562530,,,
0.8437500000,54,1.7317911891,0.6470489964,1.3808790184,2.0670437283,-0.7646240734,-0.1471190767,-0.6685754047,-1.6505400131,-7.3867449570,-2.1284245193,-3.7000314070,-0.0895225996,-4.6292536138,-4.2980228959,,,
0.8476562500,54,2.3714513689,0.9674665885,1.9049170479,1.9971925212,-0.0595127855,-0.9264099795,-0.6025042074,-1.0969143528,-7.2017818168,-1.6361218217,-3.6036272184,0.5185288520,-3.5638025146,-3.9615035311,,,
0.8515625000,54,2.8803051891,1.1999905386,2.3153219070,1.8091247769,0.6143018039,-1.6098675573,-0.4942490411,-0.5269567278,-6.5975209876,-1.0865291226,-3.3606813830,1.0766734780,-2.3051945221,-3.3935776791,,,
0.8554687500,54,3.2028647362,1.3142345222,2.5710986438,1.5140289392,1.1930103904,-2.1545139037,-0.3515244008,0.0081987399,-5.5942722355,-0.5401497009,-2.9966614515,1.5319881958,-0.9591317469,-2.6655470901,,,
0.8593750000,55,3.2971555246,1.2911989337,2.6440039820,1.1302104019,1.6238710147,-2.5318801673,-0.1842067106,0.4647092184,-4.2383481396,-0.0530378887,-2.5371954431,1.8427877318,0.3683525751,-1.8544220842,,,
0.8632812500,55,3.1397278842,1.1248698196,2.5211204651,0.6819889690,1.8706865578,-2.7282092180,-0.0034761328,0.8100455801,-2.6019285517,0.3296681558,-2.0056603596,1.9832862302,1.5805516358,-1.0340109783,,,
0.8671875000,55,2.7284954978,0.8224364227,2.2059089248,0.1979613820,1.9168271801,-2.7442733354,0.1790690706,1.0253484811,-0.7811571466,0.5786570644,-1.4222876513,1.9457589137,2.5973705905,-0.2678945087,,,
0.8710937500,55,2.0836128972,0.4039229756,1.7183482678,-0.2910820391,1.7660755028,-2.5947913939,0.3522804545,1.1063648941,1.1083537017,0.6835907049,-0.8039166757,1.7406633827,3.3608367877,0.3956190687,,,
0.8750000000,56,1.2467978782,-0.0984518404,1.0943488884,-0.7542214144,1.4416295608,-2.3069258020,0.5061653905,1.0632485282,2.9391838297,0.6543421225,-0.1636733762,1.3953945056,3.8392551070,0.9267006639,,,
0.8789062500,56,0.2790590365,-0.6418445829,0.3838535122,-1.1623241708,0.9832816244,-1.9174486067,0.6323106245,0.9191811608,4.5825497503,0.5199676670,0.4892226256,0.9517959684,4.0294161850,1.3151550625,,,
0.8828125000,56,-0.7436777274,-1.1763399023,-0.3532726530,-1.4899877087,0.4426593396,-1.4686754211,0.7240418370,0.7075491596,5.9200283953,0.3249469110,1.1484882258,0.4619396146,3.9555418796,1.5689821477,,,
0.8867187500,56,-1.7373663691,-1.6507565876,-1.0538292649,-1.7176925871,-0.1231874121,-1.0037079849,0.7764388444,0.4676466813,6.8545446732,0.1225932725,1.8077412889,-0.0182392812,3.6640535812,1.7100660650,,,
0.8906250000,57,-2.6185186426,-2.0195533719,-1.6593569462,-1.8340089139,-0.6588586629,-0.5616456467,0.7863127861,0.2394639697,7.3190412163,-0.0336146034,2.4556905869,-0.4369503434,3.2146613397,1.7675644944,,,
0.8945312500,57,-3.3132820368,-2.2487838014,-2.1237040656,-1.8372717358,-1.1168815487,-0.1733637273,0.7522016211,0.0585841309,7.2822253060,-0.0991209571,3.0713110985,-0.7545291005,2.6698316009,1.7705298756,,,
0.8984375000,57,-3.7651008557,-2.3193719868,-2.4180290879,-1.7359671781,-1.4619519857,0.1415707933,0.6744342878,-0.0478340496,6.7515186450,-0.0457252694,3.6214290650,-0.9491540058,2.0854395995,1.7417714392,,,
0.9023437500,57,-3.9396418341,-2.2272618111,-2.5321586554,-1.5473457084,-1.6727117722,0.3763148888,0.5553308740,-0.0635571716,5.7733186348,0.1342706976,4.0624021583,-1.0186231130,1.5048526572,1.6945495816,,,
0.9062500000,58,-3.8266774657,-1.9813525922,-2.4727054134,-1.2944466351,-1.7415279693,0.5362024310,0.3995623616,0.0155117332,4.4301438130,0.4276875355,4.3457524508,-0.9780196572,0.9570859216,1.6324603017,,,
0.9101562500,58,-3.4395121443,-1.6007567639,-2.2594830325,-1.0024269344,-1.6731575823,0.6363872238,0.2145439487,0.1809195145,2.8339304460,0.8032101364,4.4258250648,-0.8546968019,0.4579823260,1.5515096651,,,
0.9140625000,58,-2.8127926315,-1.1125324253,-1.9218505496,-0.6953347221,-1.4829442941,0.6982685136,0.0105475966,0.4118770232,1.1152783987,1.2161124876,4.2669903330,-0.6826666600,0.0126754018,1.4428009251,,,
0.9179687500,58,-1.9991527989,-0.5500218819,-1.4956974774,-0.3940186341,-1.1946429771,0.7454796900,-0.1998128618,0.6765555886,-0.5902349068,1.6140710640,3.8488440056,-0.4977933808,-0.3817929147,1.2948297386,,,
0.9218750000,59,-1.0646353547,0.0489459688,-1.0206333999,-0.1150818469,-0.8376358064,0.8000803419,-0.4027899607,0.9352396286,-2.1561630333,1.9436164108,3.1693763455,-0.3338598003,-0.7337179894,1.0955157570,,,
0.9257812500,59,-0.0828130898,0.6447626897,-0.5365595324,0.1296652073,-0.4434824211,0.8792660714,-0.5850297826,1.1456495550,-3.4767149146,2.1568325205,2.2468941852,-0.2188116609,-1.0534033990,0.8347018818,,,
0.9296875000,59,0.8719289058,1.1996016594,-0.0795104469,0.3336268867,-0.0422861335,0.9926717195,-0.7348563323,1.2696405343,-4.4736400263,2.2175000100,1.1210773585,-0.1709041232,-1.3493778430,0.5073735110,,,
0.9335937500,59,1.7309030480,1.6808172553,0.3222428094,0.4955939750,0.3402061200,1.1403813811,-0.8430425317,1.2794579165,-5.0984239912,2.1054770038,-0.1474293587,-0.1955436342,-1.6251377102,0.1168045555,,,
0.9375000000,60,2.4363115830,2.0629445305,0.6504303687,0.6192524527,0.6839811835,1.3119851910,-0.9032922084,1.1616045742,-5.3315622268,1.8182989456,-1.4799518118,-0.2841824242,-1.8775363437,-0.3237103486,,,
0.9414062500,60,2.9445884380,2.3278454392,0.8966810299,0.7118112056,0.9745768948,1.4871671490,-0.9128344363,0.9174189770,-5.1811240254,1.3699002268,-2.7857224275,-0.4160424667,-2.0971284246,-0.7913398158,,,
0.9453125000,60,3.2281689433,2.4637465824,1.0606634163,0.7820170711,1.2021634950,1.6381968816,-0.8731823061,0.5610562156,-4.6816802377,0.7875261378,-3.9700808479,-0.5621708068,-2.2697814446,-1.2560527187,,,
0.9492187500,60,3.2764255311,2.4645619309,1.1478459731,0.8381854544,1.3609866860,1.7343081209,-0.7905709535,0.1165785518,-3.8928669381,0.1084637710,-4.9433212630,-0.6903966174,-2.3785852420,-1.6836716746,,,
0.9531250000,61,3.0962909110,2.3304486685,1.1679938477,0.8868189829,1.4496774490,1.7473176559,-0.6753950882,-0.3843880344,-2.8957435512,-0.6223176621,-5.6286044959,-0.7697903282,-2.4056251393,-2.0386908141,,,
0.9570312500,61,2.7123783851,2.0693440460,1.1345306089,0.9319514587,1.4719038944,1.6571655829,-0.5403308559,-0.9041550760,-1.7854691729,-1.3537530255,-5.9681097455,-0.7739908543,-2.3338535916,-2.2867200217,,,
0.9609375000,61,2.1657756329,1.6982070306,1.0640023220,0.9749016538,1.4362264927,1.4557736651,-0.3975241568,-1.4004593807,-0.6604384306,-2.0305809320,-5.9274076277,-0.6836000038,-2.1494409483,-2.3970807151,,,
0.9648437500,61,1.5106848439,1.2425992799,0.9747363769,1.0140629607,1.3543897735,1.1481240284,-0.2557989244,-1.8289994500,0.3900779086,-2.5966946803,-5.4983652122,-0.4881997227,-1.8445978839,-2.3460573868,,,
0.9687500000,62,0.8087935981,0.7341315645,0.8844166488,1.0447124562,1.2383736907,0.7506381765,-0.1188993741,-2.1474386654,1.2966066336,-3.0003095965,-4.7006878155,-0.1882992303,-1.4204042038,-2.1206839996,,,
0.9726562500,62,0.1222282835,0.2065472806,0.8071700170,1.0591762258,1.0974469936,0.2880415938,0.0147137890,-2.3203646725,2.0155146756,-3.2002182079,-3.5817757524,0.2030576767,-0.8889895710,-1.7222501881,,,
0.9765625000,62,-0.4934422483,-0.3080326851,0.7512420219,1.0476580170,0.9365200564,-0.2098448179,0.1506819810,-2.3240672785,2.5290248104,-3.1715787108,-2.2143303794,0.6597731377,-0.2744523210,-1.1684518020,,,
0.9804687500,62,-0.9947308716,-0.7814137128,0.7181279536,0.9996898504,0.7563437508,-0.7106179317,0.2967585960,-2.1499183329,2.8400073173,-2.9095894290,-0.6913288448,1.1440664825,0.3879704220,-0.4933972823,,,
0.9843750000,63,-1.3534778303,-1.1899235796,0.7032859309,0.9058609201,0.5551526672,-1.1812790448,0.4605346789,-1.8055793043,2.9641666024,-2.4301977919,0.8814345672,1.6100616685,1.0547215850,0.2547213813,,,
0.9882812500,63,-1.5578510677,-1.5141536561,0.6977867592,0.7594488561,0.3307986773,-1.5902940690,0.6471178800,-1.3139986106,2.9227412160,-1.7682639755,2.3943471131,2.0091093749,1.6785080060,1.0179080824,,,
0.9921875000,63,-1.6117528192,-1.7391134884,0.6899554944,0.5577117237,0.0824802970,-1.9100198262,0.8568598531,-0.7108047423,2.7377935847,-0.9744420568,3.7431712405,2.2956816973,2.2138306916,1.7338475580,,,
0.9960937500,63,-1.5333283387,-1.8555046153,0.6664144468,0.3027261713,-0.1883255952,-2.1191651352,1.0833941936,-0.0409161581,2.4303517469,-0.1117856360,4.8371141504,2.4325341542,2.6222001106,2.3417277387,,,
1.0000000000,64,-1.3527153506,-1.8616300594,0.6127359024,0.0017425261,-0.4775400957,-2.2047302208,1.3125176474,0.6450936119,2.0203602513,0.7481123743,5.6049719570,2.3943636791,2.8758516836,2.7876814639,,,
1.0039062500,64,-1.1086644688,-1.7646561412,0.5144520390,-0.3329209358,-0.7783211746,-2.1631707427,1.5224653607,1.2947706025,1.5273007795,1.5304734946,5.9992176601,2.1699564071,2.9594294936,3.0294491730,,,
1.0078125000,64,-0.8439700402,-1.5803607996,0.3588092607,-0.6844039067,-1.0808443848,-2.0007232328,1.6857860435,1.8577086430,0.9709460771,2.1644844723,5.9981907195,1.7630616879,2.8697776243,3.0399811787,,,
1.0117187500,64,-0.6001651915,-1.3312641937,0.1371053432,-1.0322071978,-1.3721043305,-1.7328984820,1.7726186124,2.2895521014,0.3722054107,2.5914917102,5.6065966154,1.1922043296,2.6143906466,2.8097850909,,,
1.0156250000,65,-0.4119414198,-1.0433015809,-0.1525867202,-1.3534590543,-1.6359070890,-1.3834160497,1.7549092639,2.5559275667,-0.2458087327,2.7732423715,4.8547114194,0.4898721017,2.2094685157,2.3482240673,,,
1.0195312500,65,-0.3019978414,-0.7417630277,-0.5028053896,-1.6245769364,-1.8533299032,-0.9827529125,1.6108459709,2.6358629675,-0.8566182973,2.6985440824,3.7965690144,-0.2986774955,1.6785360824,1.6840558137,,,
1.0234375000,65,-0.2775975304,-0.4479743192,-0.8953440680,-1.8233221222,-2.0039823435,-0.5659500243,1.3286174800,2.5238069702,-1.4298846317,2.3859670954,2.5068230912,-1.1175424844,1.0518009666,0.8648437670,,,
1.0273437500,65,-0.3300443774,-0.1779592207,-1.3022576815,-1.9311007381,-2.0681523192,-0.1692001939,0.9087924010,2.2294142361,-1.9326336918,1.8810390297,1.0756581952,-1.9041520040,0.3654599709,-0.0457701514,,,
1.0312500000,66,-0.4373804428,0.0568890963,-1.6893550553,-1.9352005865,-2.0295338656,0.1746875523,0.3650939223,1.7750791701,-2.3325339191,1.2484757372,-0.3983982299,-2.5953321311,-0.3400293714,-0.9736722897,,,
1.0351562500,66,-0.5692894404,0.2483718257,-2.0209889873,-1.8305269901,-1.8779788125,0.4409704049,-0.2761773544,1.1923679981,-2.6021219970,0.5618805597,-1.8167854248,-3.1343223655,-1.0228348140,-1.8421266741,,,
1.0390625000,66,-0.6924172139,0.3908154744,-2.2643944538,-1.6204149411,-1.6116975304,0.6163886218,-0.9776536088,0.5189636292,-2.7220837391,-0.1062027739,-3.0885919019,-3.4767649300,-1.6429089515,-2.5799090844,,,
1.0429687500,66,-0.7748813163,0.4817473305,-2.3925885623,-1.3163420049,-1.2386152929,0.7004449946,-1.6931388506,-0.2031719237,-2.6825373469,-0.6922390391,-4.1364308863,-3.5943582774,-2.1646113527,-3.1280518444,,,
1.0468750000,67,-0.7895792359,0.5235113540,-2.3857767404,-0.9366370989,-0.7768238546,0.7044453249,-2.3705505729,-0.9287129093,-2.4823653654,-1.1472851374,-4.9002144278,-3.4759589755,-2.5585094524,-3.4444463757,,,
1.0507812500,67,-0.7161126158,0.5250053118,-2.2315511242,-0.5044553541,-0.2538963092,0.6485730153,-2.9554636217,-1.6094348619,-2.1270253871,-1.4400612811,-5.3387578636,-3.1264608349,-2.8021457993,-3.5058073050,,,
1.0546875000,67,-0.5417115473,0.5022383953,-1.9247303559,-0.0455148597,0.2952924887,0.5578054435,-3.3951512121,-2.1951029757,-1.6261597529,-1.5575789044,-5.4297629628,-2.5644939071,-2.8800046291,-3.3072728999,,,
1.0585937500,67,-0.2622502800,0.4764110806,-1.4680917809,0.4138512637,0.8322279517,0.4579681258,-3.6430685301,-2.6360748772,-0.9931922498,-1.5038540162,-5.1695826313,-1.8204685454,-2.7836556675,-2.8611029579,,,
1.0625000000,68,0.1160160123,0.4695040947,-0.8744332133,0.8481320410,1.3192923750,0.3728914137,-3.6635441623,-2.8881529782,-0.2480798477,-1.2972728767,-4.5738310495,-0.9357066975,-2.5128843234,-2.1957954012,,,
1.0664062500,68,0.5746333705,0.4989750218,-0.1689772757,1.2338001949,1.7241948954,0.3227720347,-3.4361175982,-2.9187460226,0.5780905488,-0.9670788682,-3.6785303198,0.0379655211,-2.0776220694,-1.3555721072,,,
1.0703125000,68,1.0825012659,0.5737132215,0.6096261444,1.5505038859,2.0233837883,0.3231836334,-2.9587642693,-2.7124255614,1.4398615835,-0.5495483808,-2.5403161124,1.0395274849,-1.4996061338,-0.3989805078,,,
1.0742187500,68,1.5979505624,0.6925614246,1.4109862597,1.7823245305,2.2039610212,0.3840822883,-2.2493671352,-2.2741438511,2.2784321853,-0.0844773506,-1.2341799762,2.0020259929,-0.8125417734,0.6046846231,,,
1.0781250000,69,2.0733408075,0.8452125971,2.1773416175,1.9188676910,2.2641215384,0.5085377801,-1.3451949189,-1.6294909617,3.0274390335,0.3876364271,0.1516685120,2.8577990757,-0.0601605435,1.5813068929,,,
1.0820312500,69,2.4609262972,1.0141623005,2.8493567384,1.9559108540,2.2125120368,0.6914073826,-0.3005991329,-0.8226112177,3.6210306967,0.8277360832,1.5228281499,3.5445716803,0.7075374023,2.4589531997,,,
1.0859375000,69,2.7182514358,1.1763972677,3.3716945933,1.8954570157,2.0668524978,0.9185214428,0.8166345984,0.0870288806,4.0006548391,1.1999258579,2.7859357516,4.0108770787,1.4388792545,3.1740320804,,,
1.0898437500,69,2.8120692328,1.3047980914,3.6975282050,1.7452247256,1.8514929501,1.1671559132,1.9299805335,1.0283944862,4.1192415433,1.4729906431,3.8549317928,4.2199099280,2.0846867836,3.6754576170,,,
1.0937500000,70,2.7211432147,1.3705353754,3.7923793184,1.5177676085,1.5932364668,1.4083471190,2.9598517311,1.9236782902,3.9449282900,1.6218845896,4.6563819686,4.1521051661,2.6012025010,3.9272272610,,,
1.0976562500,70,2.4386613503,1.3472874747,3.6377991160,1.2294149482,1.3158091718,1.6107403424,3.8300796663,2.6949118183,3.4666670160,1.6292875402,5.1344020611,3.8070572473,2.9519753743,3.9103869789,,,
1.1015625000,70,1.9737639464,1.2162131995,3.2342382731,0.8990221939,1.0349870589,1.7446974855,4.4744642451,3.2719232268,2.7003895690,1.4869917836,5.2550530092,3.2045261415,3.1094712713,3.6243678019,,,
1.1054687500,70,1.3508698768,0.9695729636,2.6017619665,0.5464293023,0.7565955803,1.7853801567,4.8423381018,3.5998385571,1.6917263942,1.1966232805,5.0093010412,2.3836191756,3.0568916569,3.0868567865,,,
1.1093750000,71,0.6065373938,0.6118496017,1.7781124496,0.1907069064,0.4779140194,1.7145910442,4.9024613971,3.6444070326,0.5129469185,0.7695510204,4.4138099639,1.3997211940,2.7900331155,2.3319067738,,,
1.1132812500,71,-0.2150254876,0.1586916856,0.8147920132,-0.1515701093,0.1912901317,1.5219566078,4.6451698605,3.3945110624,-0.7449832984,0.2264465651,3.5094855499,0.3196028742,2.3185635831,1.4068424769,,,
1.1171875000,71,-1.0663441985,-0.3653312352,-0.2277068765,-0.4677260505,-0.1117319836,1.2058623189,4.0829764505,2.8622264391,-1.9828427210,-0.4028527718,2.3581483694,-0.7843665219,1.6661141316,0.3687382716,,,
1.1210937500,71,-1.8998746431,-0.9291033120,-1.2844412309,-0.7496757107,-0.4371021681,0.7740181213,3.2498059893,2.0813092465,-3.1038325067,-1.0789716355,1.0379586830,-1.8397990601,0.8690684768,-0.7189222589,,,
1.1250000000,72,-2.6696900324,-1.4967261021,-2.2896371995,-0.9935455020,-0.7863191598,0.2432018216,2.1989362233,1.1048371594,-4.0230849681,-1.7527716006,-0.3617240435,-2.7787584562,-0.0254068087,-1.7891018559,,,
1.1289062500,72,-3.3321963371,-2.0286256587,-3.1794133364,-1.1982226395,-1.1556399993,-0.3621445637,0.9996354189,0.0020898953,-4.6753931320,-2.3666232071,-1.7456253686,-3.5408966913,-0.9613226819,-2.7737298735,,,
1.1328125000,72,-3.8469128419,-2.4827494509,-3.8943162230,-1.3633577927,-1.5359516014,-1.0122228108,-0.2675353869,-1.1457938083,-5.0207142184,-2.8584822865,-3.0180968315,-4.0758903159,-1.8756901388,-3.6065078416,,,
1.1367187500,72,-4.1781932522,-2.8169578265,-4.3825522655,-1.4876660801,-1.9129955813,-1.6742835214,-1.5166670908,-2.2517774261,-5.0467563231,-3.1691242811,-4.0894179343,-4.3461947882,-2.7011256107,-4.2267708927,,,
1.1406250000,73,-4.2980225885,-2.9931974724,-4.6042308735,-1.5682166773,-2.2679316639,-2.3142862528,-2.6632689148,-3.2301905225,-4.7679815491,-3.2513352953,-4.8830502272,-4.3305658548,-3.3704964144,-4.5846659227,,,
1.1445312500,73,-4.1891294260,-2.9828322035,-4.5359144856,-1.6008271497,-2.5783049805,-2.8975517908,-3.6310085926,-4.0041317833,-4.2210179419,-3.0784900398,-5.3429385412,-4.0275752692,-3.8237886616,-4.6468393368,,,
1.1484375000,73,-3.8471745798,-2.7714319889,-4.1740088288,-1.5810492524,-2.8193263363,-3.3888819465,-4.3574164490,-4.5115607285,-3.4575051075,-2.6497051215,-5.4388797746,-3.4574501086,-4.0155502399,-4.4009055826,,,
1.1523437500,73,-3.2811136441,-2.3612395736,-3.5356632407,-1.5050039114,-2.9652471949,-3.7529659153,-4.7978913830,-4.7092418658,-2.5361595944,-1.9900480646,-5.1680707328,-2.6608082488,-3.9203114088,-3.8570385022,,,
1.1562500000,74,-2.5118383241,-1.7706143781,-2.6568981308,-1.3696869512,-2.9907635482,-3.9556662903,-4.9279905866,-4.5747994993,-1.5158771700,-1.1464353821,-4.5525064003,-1.6941790755,-3.5343387743,-3.0462613807,,,
1.1601562500,74,-1.5701521551,-1.0312729993,-1.5889172703,-1.1730223491,-2.8727104248,-3.9662869041,-4.7443892227,-4.1078128758,-0.4510317534,-0.1813851849,-3.6338877958,-0.6236801061,-2.8742306571,-2.0165634624,,,
1.1640625000,74,-0.4952668938,-0.1849911526,-0.3940938102,-0.9142927855,-2.5924241931,-3.7605963111,-4.2647791960,-3.3305572801,0.6108154885,0.8333785956,-2.4685551602,0.4811756237,-1.9743977394,-0.8286483397,,,
1.1679687500,74,0.6657901466,0.7189998343,0.8574238524,-0.5952912090,-2.1388247904,-3.3243356976,-3.5265879733,-2.2879944097,1.6293241081,1.8229595188,-1.1240147272,1.5522177850,-0.8851467941,0.4475422999,,,
1.1718750000,75,1.8585228581,1.6259593981,2.0906677823,-0.2218673549,-1.5116945678,-2.6569223812,-2.5842069051,-1.0459011182,2.5706717187,2.7156892081,0.3232601393,2.5259035152,0.3286602694,1.7357273320,,,
1.1757812500,75,3.0221826598,2.4779633811,3.2292884121,0.1948997267,-0.7242515525,-1.7747672106,-1.5046297943,0.3136854555,3.4063761712,3.4503343346,1.7902854137,3.3460695853,1.5898915551,2.9566688195,,,
1.1796875000,75,4.0924981693,3.2175354261,4.2001164522,0.6384940098,0.1957402014,-0.7131551312,-0.3618809134,1.6993983232,4.1120764272,3.9829521639,3.1914239931,3.9668589897,2.8137516749,4.0328120793,,,
1.1835937500,75,5.0056113177,3.7924104822,4.9384702623,1.0876951551,1.2064866561,0.4744642570,0.7689167025,3.0183730849,4.6665711492,4.2908471606,4.4432794383,4.3554485516,3.9144255052,4.8938198456,,,
1.1875000000,76,5.7022379508,4.1601279131,5.3929928074,1.5177312275,2.2538807669,1.7202201081,1.8168233707,4.1831328842,5.0512454365,4.3713937775,5.4690614430,4.4933874308,4.8118305227,5.4816573492,,,
1.1914062500,76,6.1311415993,4.2909978382,5.5288910789,1.9013462811,3.2738919703,2.9477890982,2.7190563556,5.1163881937,5.2497979182,4.2357560963,6.2011583420,4.3757486134,5.4365065088,5.7539381019,,,
1.1953125000,76,6.2517149247,4.1689843123,5.3293722306,2.2097276489,4.1955535044,4.0789125970,3.4236910613,5.7539281020,5.2481312090,3.9003966340,6.5823097488,4.0086824551,5.7323456716,5.6853107048,,,
1.1992187500,76,6.0362063584,3.7913644482,4.7959896153,2.4137272301,4.9450162910,5.0390149592,3.8916473819,6.0467588666,5.0345359546,3.3806258496,6.5673060064,3.4071148457,5.6587240746,5.2678305564,,,
1.2031250000,77,5.4722551204,3.1685072238,3.9487304785,2.4859355789,5.4511268877,5.7615543176,4.0984425308,5.9636176367,4.6006153658,2.6891140059,6.1270124081,2.5941375541,5.1938588073,4.5114934646,,,
1.2070312500,77,4.5657577558,2.3243537378,2.8259567519,2.4037644768,5.6522507543,6.1916765134,4.0356451123,5.4940228819,3.9432706582,1.8391394715,5.2545974704,1.6021470788,4.3395582154,3.4452360876,,,
1.2109375000,77,3.3432566816,1.2969042667,1.4834975832,2.1530128220,5.5032024838,6.2897629110,3.7115289941,4.6508924034,3.0673748917,0.8497243986,3.9716789804,0.4742217828,3.1254588182,2.1175786123,,,
1.2148437500,77,1.8528224056,0.1374434534,-0.0078660555,1.7309938906,4.9809521242,6.0347117187,3.1505357290,3.4714014605,1.9880651862,-0.2504732249,2.3315487947,-0.7360808242,1.6102979777,0.5957481143,,,
1.2187500000,78,0.1630077602,-1.0920958973,-1.5664774469,1.1485395669,4.0883880552,5.4261019870,2.3916453296,2.0154903328,0.7316984424,-1.4217910133,0.4181189030,-1.9671312569,-0.1207461743,-1.0371833856,,,
1.2226562500,78,-1.6397537605,-2.3229811453,-3.1044845898,0.4307792022,2.8562279416,4.4844539009,1.4860958812,0.3626464891,-0.6643635555,-2.6139098248,-1.6586254463,-3.1528732726,-1.9615474863,-2.6866275748,,,
1.2265625000,78,-3.4547408615,-3.4834724429,-4.5320428104,-0.3831035102,1.3434614137,3.2496071625,0.4948026501,-1.3917778299,-2.1517093879,-3.7665850452,-3.7688753779,-4.2261500663,-3.7915005780,-4.2514097168,,,
1.2304687500,78,-5.1714520689,-4.5018518803,-5.7607581272,-1.2411425585,-0.3637150827,1.7781115179,-0.5145170003,-3.1399748925,-3.6690426369,-4.8105698647,-5.7698821047,-5.1209626352,-5.4821193967,-5.6289354729,,,
1.2343750000,79,-6.6754864573,-5.3091154093,-6.7070848625,-2.0812488117,-2.1551789959,0.1407010942,-1.4707852469,-4.7653592230,-5.1386605952,-5.6698954393,-7.5138551861,-5.7742974051,-6.9044211605,-6.7209516320,,,
1.2382812500,79,-7.8562218626,-5.8424017702,-7.2967030592,-2.8355952633,-3.9032869176,-1.5797652428,-2.3038739987,-6.1480577298,-6.4638760441,-6.2668375311,-8.8579158169,-6.1289236473,-7.9381738260,-7.4404052900,,,
1.2421875000,79,-8.6160684395,-6.0498554103,-7.4703153815,-3.4365967372,-5.4727088241,-3.2905142423,-2.9498411351,-7.1736160734,-7.5315455931,-6.5297796099,-9.6763666476,-6.1381352197,-8.4830387182,-7.7192753905,,,
1.2460937500,79,-8.8802335375,-5.8965173262,-7.1902969255,-3.8237797910,-6.7328819212,-4.8923340134,-3.3567243350,-7.7449272612,-8.2227898092,-6.4027708405,-9.8739650933,-5.7721667055,-8.4700638177,-7.5163443370,,,
1.2500000000,80,-8.6053514804,-5.3698079222,-6.4468198955,-3.9504961266,-7.5712967433,-6.2850199423,-3.4900880618,-7.7954065800,-8.4313010505,-5.8548077121,-9.3977157907,-5.0247580847,-7.8710922396,-6.8233542479,,,
1.2539062500,80,-7.7852940808,-4.4829194538,-5.2618428866,-3.7894184733,-7.9054752508,-7.3744796804,-3.3372901988,-7.3000010989,-8.0843320131,-4.8869286405,-8.2446918768,-3.9177766753,-6.7039362022,-5.6681200572,,,
1.2578125000,80,-6.4530923822,-3.2751404067,-3.6898222511,-3.3360451607,-7.6918365803,-8.0803053176,-2.9095962654,-6.2807271718,-7.1593846049,-3.5357790712,-6.4644638370,-2.5022539080,-5.0322998177,-4.1138116297,,,
1.2617187500,80,-4.6789631039,-1.8093155017,-1.8149540942,-2.6098907137,-6.9303840542,-8.3424500327,-2.2417713456,-4.8052043047,-5.6913308290,-1.8730413356,-4.1561626193,-0.8554124356,-2.9607205289,-2.2544701151,,,
1.2656250000,81,-2.5653298499,-0.1674841658,0.2543799957,-1.6534042103,-5.6649079143,-8.1261678123,-1.3893168641,-2.9790942571,-3.7690303808,-0.0008228712,-1.4612401537,0.9254809477,-0.6256451669,-0.2075456718,,,
1.2695312500,81,-0.2398588128,1.5543091024,2.3930273713,-0.5287904811,-3.9789562384,-7.4250516070,-0.4238004250,-0.9349546036,-1.5244439001,1.9563888822,1.4468059858,2.7310081451,1.8160181183,1.8954467934,,,
1.2734375000,81,2.1529884961,3.2517362893,4.4676646764,0.6870441804,-1.9882082699,-6.2622962549,0.5732788916,1.1800412430,0.8815498582,3.8623001452,4.3748697245,4.4480014780,4.1996510710,3.9191548598,,,
1.2773437500,81,4.4617410884,4.8186529048,6.3461191299,1.9089742659,0.1697367070,-4.6901778925,1.5176785041,3.2162123128,3.2738117750,5.5807521690,7.1242398108,5.9676779525,6.3658104664,5.7346586770,,,
1.2812500000,82,6.5385669852,6.1542668164,7.9067393287,3.0507250282,2.3467370377,-2.7875896928,2.3300435381,5.0329095697,5.4772484453,6.9875048621,9.5052749541,7.1929531103,8.1719506652,7.2288483161,,,
1.2851562500,82,8.2496641738,7.1702320689,9.0467900450,4.0314931641,4.3950797677,-0.6556568375,2.9430534460,6.5090125368,7.3307581277,7.9801244991,11.3512892187,8.0443886928,9.5017010357,8.3117763294,,,
1.2890625000,82,9.4840960698,7.7965286649,9.6888709605,4.7813475060,6.1768537074,1.5880783973,3.3070716425,7.5513176259,8.7002467125,8.4846758380,12.5300696718,8.4643469033,10.2709280950,8.9210542324,,,
1.2929687500,82,10.1603372969,7.9854727774,9.7849347054,5.2452048769,7.5713623124,3.8160267880,3.3936269874,8.0996691213,9.4892592053,8.4590741962,12.9520892398,8.4193100066,10.4307110142,9.0231819196,,,
1.2968750000,83,10.2306560506,7.7141314051,9.3182506317,5.3856685386,8.4810597556,5.8966744734,3.1966707791,8.1285486238,9.6456749580,7.8941783285,12.5754787431,7.9008192382,9.9681244657,8.6127389728,,,
1.3007812500,83,9.6839708563,6.9859572435,8.3040830097,5.1851872464,8.8369047526,7.7002735830,2.7320790050,7.6460871501,9.1638999542,6.8141424015,11.4085036552,6.9257668742,8.9059233587,7.7109222624,,,
1.3046875000,83,8.5476241143,5.8321277694,6.7896284488,4.6477661870,8.6037594242,9.1047485420,2.0360278671,6.6920423902,8.0834341856,5.2768053540,9.5101936527,5.5365592107,7.3017833269,6.3645425615,,,
1.3085937500,83,6.8877177390,4.3120968649,4.8530192243,3.7999445171,7.7855567825,10.0028687264,1.1626062736,5.3355838462,6.4854836254,3.3733760294,6.9889184576,3.8009374485,5.2468803637,4.6454236371,,,
1.3125000000,84,4.8068427642,2.5119997706,2.6004439700,2.6902791984,6.4288100709,10.3112104929,0.1805158790,3.6722245428,4.4886328429,1.2254139375,3.9976931945,1.8103927003,2.8627033906,2.6488709627,,,
1.3164062500,84,2.4379818296,0.5395641460,0.1603195756,1.3865495590,4.6223724553,9.9800883593,-0.8316554979,1.8182238318,2.2428625803,-1.0227998684,0.7247757058,-0.3241612732,0.2946846244,0.4894468465,,,
1.3203125000,84,-0.0656051662,-1.4846749489,-2.3256884529,-0.0295103352,2.4918661408,9.0022856238,-1.7918977284,-0.0986869344,-0.0801405744,-3.2166460713,-2.6207342519,-2.4800017559,-2.2979858645,-1.7067465222,,,
1.3242187500,84,-2.5431441813,-3.4383488628,-4.7135598211,-1.4692214222,0.1888592450,7.4179989265,-2.6224833024,-1.9514831724,-2.3019309439,-5.2059853622,-5.8265130522,-4.5324967667,-4.7553125154,-3.8121945095,,,
1.3281250000,85,-4.8393646737,-5.2077642455,-6.8674663305,-2.8442988745,-2.1232465496,5.3142854012,-3.2575578564,-3.6261778102,-4.2565440957,-6.8586753027,-8.6944191489,-6.3650392916,-6.9296367768,-5.7079549466,,,
1.3320312500,85,-6.8155520400,-6.6955710164,-8.6679273286,-4.0730940875,-4.2836932346,2.8190005171,-3.6490708673,-5.0310013997,-5.8100025019,-8.0698359821,-11.0543129182,-7.8767589619,-8.6961805172,-7.2910286976,,,
1.3359375000,85,-8.3575630880,-7.8247704456,-10.0168867465,-5.0849713283,-6.1467434414,0.0907828567,-3.7701438515,-6.1004433400,-6.8745895994,-8.7663649378,-12.7727865086,-8.9870268301,-9.9595338763,-8.4782546168,,,
1.3398437500,85,-9.3810072166,-8.5399818556,-10.8405373687,-5.8229677058,-7.5909115726,-2.6927550255,-3.6159011517,-6.7944464484,-7.4138444650,-8.9084355427,-13.7576821599,-9.6373958480,-10.6565432858,-9.2078060753,,,
1.3437500000,86,-9.8344296465,-8.8076502498,-11.0913609126,-6.2454848448,-8.5253872422,-5.3470325313,-3.2023663691,-7.0948844727,-7.4380260495,-8.4901591708,-13.9604641442,-9.7924860084,-10.7571886706,-9.4402415401,,,
1.3476562500,86,-9.7011591966,-8.6163936675,-10.7503490455,-6.3277156370,-8.8945551957,-7.6922501194,-2.5640889835,-7.0019539532,-6.9936929798,-7.5402714680,-13.3778263121,-9.4409822122,-10.2647650217,-9.1603757953,,,
1.3515625000,86,-8.9999124222,-7.9776080845,-9.8292710382,-6.0629710585,-8.6811581185,-9.5651931747,-1.7509259154,-6.5322717319,-6.1526417085,-6.1219830553,-12.0522263626,-8.5968395254,-9.2155141151,-8.3796977772,,,
1.3554687500,86,-7.7837975373,-6.9256181324,-8.3719720587,-5.4635090031,-7.9078339286,-10.8312135593,-0.8241261041,-5.7188956642,-5.0038730836,-4.3304068440,-10.0698691474,-7.2998757529,-7.6768569008,-7.1378953689,,,
1.3593750000,87,-6.1372518437,-5.5164958971,-6.4534988386,-4.5602849123,-6.6361272665,-11.3955957508,0.1482755167,-4.6120072535,-3.6487621948,-2.2865682140,-7.5549003333,-5.6147327919,-5.7432813050,-5.5019952216,,,
1.3632812500,87,-4.1706115455,-3.8250703970,-4.1763602233,-3.4012910656,-4.9620669573,-11.2126397919,1.0966810108,-3.2783418974,-2.1967040068,-0.1282537734,-4.6599078811,-3.6276566668,-3.5297088015,-3.5625465947,,,
1.3671875000,87,-2.0123756946,-1.9402995502,-1.6641358741,-2.0485714712,-3.0080849243,-10.2906595484,1.9554302403,-1.7979828772,-0.7582131110,2.0009681918,-1.5542439194,-1.4413084667,-1.1632072715,-1.4274890006,,,
1.3710937500,87,0.2002261151,0.0402508942,0.9465120898,-0.5743425203,-0.9121351910,-8.6918644312,2.6679110137,-0.2585652797,0.5651977645,3.9627400839,1.5877050864,0.8315112146,1.2254710702,0.7848828545,,,
1.3750000000,88,2.3311895402,2.0158565787,3.5140520649,0.9432002854,1.1842006410,-6.5273012409,3.1905108997,1.2516664137,1.6920180924,5.6333010092,4.5966023474,3.0740954781,3.5092713209,2.9525216624,,,
1.3789062500,88,4.2548585983,3.8873143174,5.8995512229,2.4239123883,3.1466269271,-3.9479342159,3.4949802535,2.6500806178,2.5689413000,6.9104648031,7.3160054823,5.1712627311,5.5707337213,4.9552839162,,,
1.3828125000,88,5.8632709240,5.5607529235,7.9732425152,3.7894038645,4.8567298173,-1.1331008554,3.5693302582,3.8640023543,3.1737013713,7.7184734579,9.6084368130,7.0139982204,7.3067865800,6.6800755998,,,
1.3867187500,88,7.0714961566,6.9509837478,9.6205937163,4.9665508654,6.2179902377,1.7228054504,3.4176856568,4.8331785469,3.5122870641,8.0116403712,11.3605058242,8.5038644733,8.6329356962,8.0262844670,,,
1.3906250000,89,7.8212493730,7.9848962466,10.7481956025,5.8909762576,7.1597474873,4.4248935059,3.0593698483,5.5111521082,3.6120377866,7.7773792025,12.4875079207,9.5576290290,9.4868885598,8.9118411434,,,
1.3945312500,89,8.0831444775,8.6051536369,11.2893015271,6.5104425023,7.6397861924,6.7927963101,2.5272017120,5.8664133857,3.5127328328,7.0382727580,12.9373278557,10.1120401953,9.8312388201,9.2794439370,,,
1.3984375000,89,7.8577688157,8.7741247792,11.2085021050,6.7879332655,7.6458082443,8.6746639622,1.8648696382,5.8837873959,3.2577927154,5.8521113784,12.6932560270,10.1283309848,9.6549485342,9.1020040124,,,
1.4023437500,89,7.1755183858,8.4777280234,10.5050497578,6.7042336096,7.1955066375,9.9581312845,1.1233850658,5.5660156812,2.8875842812,4.3088641615,11.7754697115,9.5960384635,8.9737799664,8.3864209119,,,
1.4062500000,90,6.0948921019,7.7285675581,9.2145363200,6.2598532150,6.3347244109,10.5766702718,0.3568721700,4.9351234586,2.4362488843,2.5242623143,10.2410128832,8.5357866009,7.8299543373,7.1750562333,,,
1.4101562500,90,4.6987985676,6.5674276641,7.4086448321,5.4759983804,5.1334820010,10.5110495996,-0.3818328813,4.0329439795,1.9320721917,0.6306453815,8.1819197067,7.0005319663,6.2909386945,5.5444543525,,,
1.4140625000,90,3.0886148436,5.0621586630,5.1925621546,4.3941577329,3.6802882243,9.7870416187,-1.0452222908,2.9200952620,1.3997316421,-1.2335512099,5.7209626562,5.0745810894,4.4467953334,3.6010521155,,,
1.4179687500,90,1.3763391570,3.3035058449,2.6996737499,3.0740159814,2.0755802318,8.4710661632,-1.5943488409,1.6728132065,0.8620831647,-2.9342068740,3.0047622292,2.8698035129,2.4055205077,1.4740037352,,,
1.4218750000,91,-0.3241477187,1.3983304950,0.0835253877,1.5898314387,0.4249993599,6.6648114140,-2.0010601436,0.3774467617,0.3401801496,-4.3509623219,0.1946227124,0.5189524206,0.2863389006,-0.6942655201,,,
1.4257812500,91,-1.9054876142,-0.5386098480,-2.4924716292,0.0257572182,-1.1672853079,4.4986727877,-2.2493140399,-0.8768664769,-0.1478298788,-5.3856401280,-2.5440116938,-1.8333999851,-1.7883980867,-2.7588506893,,,
1.4296875000,91,-3.2740745477,-2.3930603073,-4.8667443813,-1.5293883373,-2.6052646097,2.1231783827,-2.3357362578,-2.0061052391,-0.5870547002,-5.9698847420,-5.0524953318,-4.0413771734,-3.7017022010,-4.5835369672,,,
1.4335937500,91,-4.3558086358,-4.0590302236,-6.8916257317,-2.9875511979,-3.8075821275,-0.3019700450,-2.2694559037,-2.9383864487,-0.9641313701,-6.0717753949,-7.1895379583,-5.9686599936,-5.3499035202,-6.0514289791,,,
1.4375000000,92,-5.1003103405,-5.4456189839,-8.4446679489,-4.2668067609,-4.7131212374,-2.6203468738,-2.0711136818,-3.6191691262,-1.2640181437,-5.7003216326,-8.8407380571,-7.4986626793,-6.6494224572,-7.0741110579,,,
1.4414062500,92,-5.4834389874,-6.4827896819,-9.4381228746,-5.2963901799,-5.2847791089,-4.6907526828,-1.7709317123,-4.0146389003,-1.4676220033,-4.9063435828,-9.9263728037,-8.5432117015,-7.5418650856,-7.5984395081,,,
1.4453125000,92,-5.5078071527,-7.1257745205,-9.8256252939,-6.0211138567,-5.5108520491,-6.3965710822,-1.4058331749,-4.1138045997,-1.5527125331,-3.7786280563,-10.4066112935,-9.0491101942,-7.9969330834,-7.6102527758,,,
1.4492187500,92,-5.2009805817,-7.3575111468,-9.6052627204,-6.4048563385,-5.4040451277,-7.6514101684,-1.0157332801,-3.9294768480,-1.4989226724,-2.4351557938,-10.2833667570,-9.0019725763,-8.0126550797,-7.1345652049,,,
1.4531250000,93,-4.6113044103,-7.1885035184,-8.8184744741,-6.4327100366,-4.9985301296,-8.4012927594,-0.6392977492,-3.4974798661,-1.2952735183,-1.0101921273,-9.5983224359,-8.4266510330,-7.6127781943,-6.2321106908,,,
1.4570312500,93,-3.8018396259,-6.6539473200,-7.5448011304,-6.1113993488,-4.3455532820,-8.6245639043,-0.3096924745,-2.8731606401,-0.9470992980,0.3610074448,-8.4273212560,-7.3838675614,-6.8419184822,-4.9925231510,,,
1.4609375000,93,-2.8435451910,-5.8086990151,-5.8933951104,-5.4679312200,-3.5080498722,-8.3306362709,-0.0510162311,-2.1250098361,-0.4794450655,1.5573078823,-6.8721551793,-5.9635009536,-5.7598931101,-3.5250527552,,,
1.4648437500,93,-1.8091037161,-4.7212381405,-3.9929184800,-4.5469578852,-2.5547851223,-7.5579776539,0.1239603674,-1.3264710182,0.0642127104,2.4838652976,-5.0513271069,-4.2758849700,-4.4368404766,-1.9482569410,,,
1.4687500000,94,-0.7682687659,-3.4677499185,-1.9813823642,-3.4075485331,-1.5546463398,-6.3710791970,0.2144645987,-0.5477863632,0.6268784877,3.0795573089,-3.0911140221,-2.4426970924,-2.9499231767,-0.3801218448,,,
1.4726562500,94,0.2154110686,-2.1268866789,0.0033602605,-2.1197526350,-0.5716672482,-4.8560361669,0.2309193659,0.1505005084,1.1442986484,3.3196570257,-1.1173786838,-0.5883888720,-1.3811100841,1.0705325740,,,
1.4765625000,94,1.0873231263,-0.7751811061,1.8325901991,-0.7608233492,0.3388399849,-3.1147681066,0.1929948100,0.7217050041,1.5506652057,3.2151011557,0.7521682949,1.1677446205,0.1852528597,2.3112364673,,,
1.4804687500,94,1.8045797372,0.5170345827,3.3953616478,0.5892119660,1.1328942476,-1.2583636481,0.1267961225,1.1351245391,1.7834234896,2.8095894382,2.4154719871,2.7191073108,1.6660839887,3.2717597983,,,
1.4843750000,95,2.3386229367,1.6890716015,4.6063624070,1.8526572136,1.7792049826,0.5997979227,0.0613765343,1.3768784466,1.7884270866,2.1744876934,3.7928302110,3.9788889157,2.9844115871,3.9085234991,,,
1.4882812500,95,2.6767782226,2.6923806844,5.4119171857,2.9595081878,2.2594092791,2.3506237720,0.0248412969,1.4500120654,1.5271167196,1.4006187752,4.8315882059,4.8860798312,4.0745691845,4.2069932278,,,
1.4921875000,95,2.8220009204,3.4919969573,5.7930492702,3.8523806400,2.5674328378,3.8952623467,0.0405470785,1.3738512570,0.9861955272,0.5867035896,5.5078911126,5.4095508449,4.8867696851,4.1815427154,,,
1.4960937500,95,2.7907357334,4.0671545995,5.7651202717,4.4903212460,2.7082971601,5.1502300623,0.1240390745,1.1821572194,0.1878917150,-0.1739011458,5.8255081724,5.5495277913,5.3904908267,3.8726389112,,,
1.5000000000,96,2.6095189146,4.4113371800,5.3743009620,4.8510386812,2.6966441885,6.0515402775,0.2811732588,0.9196235848,-0.8033333327,-0.8049730210,5.8125683761,5.3362044587,5.5764256667,3.3416144578,,,
1.5039062500,96,2.3112585079,4.5317553882,4.6915803067,4.9314260879,2.5550892573,6.5577121987,0.5074474937,0.6366641187,-1.8821618579,-1.2546597231,5.5171400101,4.8256376823,5.4567554078,2.6636121110,,,
1.5078125000,96,1.9319392853,4.4479735158,3.8051199116,4.7465338958,2.3123540522,6.6516100003,0.7882750910,0.3829980518,-2.9140529840,-1.4970920559,5.0020666565,4.0933625803,5.0634593737,1.9195214482,,,
1.5117187500,96,1.5079879260,4.1894234408,2.8116585993,4.3272648711,2.0010388857,6.3410937715,1.1000034220,0.2009594354,-3.7552140844,-1.5297682673,4.3389177748,3.2263436737,4.4445831873,1.1878278945,,,
1.5156250000,97,1.0740316991,3.7918393426,1.8075655169,3.7170325864,1.6548987430,5.6584258382,1.4117331495,0.1196001410,-4.2756960708,-1.3694170035,3.6008121519,2.3139935262,3.6588335405,0.5371782309,,,
1.5195312500,97,0.6606630706,3.2930581484,0.8801727744,2.9676143162,1.3056530786,4.6583207498,1.6880832060,0.1505496560,-4.3798943651,-1.0483777825,2.8543714602,1.4391352732,2.7693348797,0.0202336723,,,
1.5234375000,97,0.2921846297,2.7289782450,0.1001881077,2.1345408346,0.9796850177,3.4145359667,1.8928627049,0.2863413070,-4.0208113173,-0.6116063907,2.1519284950,0.6699707112,1.8376592233,-0.3307368025,,,
1.5273437500,97,-0.0151700847,2.1305325273,-0.4839136970,1.2725205152,0.6952917847,2.0150462986,1.9932994387,0.5015774934,-3.2071008396,-0.1129216830,1.5258104200,0.0541863900,0.9191957731,-0.5060193717,,,
1.5312500000,98,-0.2538652720,1.5221900870,-0.8488496776,0.4314476334,0.4611855332,0.5561057490,1.9642133722,0.7568558669,-2.0033716186,0.3906554045,0.9864281203,-0.3839535812,0.0604580238,-0.5179142868,,,
1.5351562500,98,-0.4242595734,0.9219084800,-0.9967268307,-0.3465894666,0.2766172243,-0.8642916072,1.7914292009,1.0048088578,-0.5242731013,0.8459303667,0.5247789995,-0.6433822091,-0.7019021043,-0.3974600803,,,
1.5390625000,98,-0.5327778728,0.3419792816,-0.9529338935,-1.0291780112,0.1329480854,-2.1530278938,1.4738523376,1.1970956392,1.0774082493,1.2098130021,0.1183174387,-0.7435334652,-1.3413535141,-0.1891302451,,,
1.5429687500,98,-0.5899214537,-0.2098703500,-0.7623757996,-1.5944972983,0.0160306852,-3.2281883717,1.0239407842,1.2910276099,2.6281002203,1.4526907702,-0.2619828043,-0.7202416250,-1.8420787213,0.0552378098,,,
1.5468750000,99,-0.6088413821,-0.7294570165,-0.4844670442,-2.0315373728,-0.0913276719,-4.0249003902,0.4666284220,1.2548724692,3.9547179069,1.5583346817,-0.6453985348,-0.6210619597,-2.2001757558,0.2821190114,,,
1.5507812500,99,-0.6045417041,-1.2151329520,-0.1869419970,-2.3396860639,-0.2072168930,-4.5004602460,-0.1630354014,1.0715698575,4.9072104368,1.5217595856,-1.0568558096,-0.5002076837,-2.4245937292,0.4411094447,,,
1.5546875000,99,-0.5931140518,-1.6665037408,0.0615377138,-2.5274830348,-0.3486747627,-4.6382257918,-0.8231429513,0.7410990242,5.3789586119,1.3473509666,-1.5134444885,-0.4128136327,-2.5362870110,0.4891527706,,,
1.5585937500,99,-0.5902986443,-2.0826888578,0.1995996686,-2.6103342004,-0.5294838765,-4.4493988233,-1.4685839788,0.2816719772,5.3214602475,1.0487369356,-2.0211319826,-0.4083177002,-2.5645426063,0.3947353720,,,
1.5625000000,100,-0.6092741391,-2.4603383492,0.1811220749,-2.6073582421,-0.7574727014,-3.9718785247,-2.0545948235,-0.2706673150,4.7505361676,0.6498019141,-2.5716079081,-0.5235041008,-2.5409333294,0.1420689146,,,
1.5664062500,100,-0.6583261530,-2.7920054283,-0.0185365488,-2.5379711044,-1.0317273282,-3.2660156902,-2.5398935239,-0.8648314461,3.7430634600,0.1847303956,-3.1403585467,-0.7765651349,-2.4927385468,-0.2655649791,,,
1.5703125000,100,-0.7391519851,-3.0654514489,-0.3991079198,-2.4188713604,-1.3404716960,-2.4078537590,-2.8892968498,-1.4400723699,2.4252248730,-0.3042377545,-3.6870581217,-1.1634343398,-2.4376189233,-0.8042475511,,,
1.5742187500,100,-0.8462293272,-3.2641718303,-0.9351500040,-2.2618872487,-1.6603128957,-1.4809517061,-3.0758189076,-1.9333363596,0.9546623446,-0.7712590098,-4.1586695922,-1.6570384092,-2.3805787600,-1.4302030177,,,
1.5781250000,101,-0.9674170738,-3.3691441918,-1.5788719664,-2.0729921959,-1.9575218914,-0.5681591695,-3.0823726712,-2.2876198392,-0.5002470255,-1.1732193795,-4.4953529219,-2.2098266041,-2.3139055495,-2.0833881139,,,
1.5820312500,101,-1.0855845937,-3.3613768671,-2.2654939803,-1.8525690741,-2.1916668000,0.2556399946,-2.9031508684,-2.4598555366,-1.7807231711,-1.4766704787,-4.6385350628,-2.7593589964,-2.2199362628,-2.6938139021,,,
1.5859375000,101,-1.1807317738,-3.2245474636,-2.9201946327,-1.5967084400,-2.3210716541,0.9296006952,-2.5444917479,-2.4265576816,-2.7551812689,-1.6627991597,-4.5394267621,-3.2358728071,-2.0753430948,-3.1894999238,,,
1.5898437500,101,-1.2321484096,-2.9472301296,-3.4657349910,-1.2992166616,-2.3090301193,1.4117432590,-2.0249283872,-2.1862311057,-3.3327445964,-1.7288774314,-4.1662909305,-3.5705572753,-1.8556161996,-3.5046459293,,,
1.5937500000,102,-1.2204496130,-2.5245751723,-3.8300993568,-0.9540144861,-2.1297011481,1.6822467682,-1.3742572046,-1.7585757161,-3.4719940702,-1.6863785089,-3.5094857906,-3.7035350430,-1.5390807504,-3.5869315111,,,
1.5976562500,102,-1.1296066705,-1.9595637602,-3.9537797737,-0.5575685641,-1.7727923618,1.7450261747,-0.6316208380,-1.1810768071,-3.1848416294,-1.5563779726,-2.5839000767,-3.5907226131,-1.1102843587,-3.4031810938,,,
1.6015625000,102,-0.9491629561,-1.2640858610,-3.7963546678,-0.1110041204,-1.2464138871,1.6271592245,0.1572114301,-0.5040159292,-2.5350366144,-1.3634902152,-1.4289813934,-3.2089979193,-0.5630402608,-2.9430720835,,,
1.6054687500,102,-0.6764880490,-0.4598918512,-3.3416620499,0.3783653595,-0.5778004313,1.3753965399,0.9430249920,0.2149619484,-1.6301768567,-1.1303724270,-0.1068226217,-2.5593857173,0.0966191740,-2.2209093820,,,
1.6093750000,103,-0.3186626461,0.4208565092,-2.6007949002,0.8962649699,0.1880702574,1.0495650372,1.6765002750,0.9160470759,-0.6072872021,-0.8741951371,1.3014401463,-1.6680774600,0.8478780860,-1.2754725073,,,
1.6132812500,103,0.1065002018,1.3358752179,-1.6123761443,1.4215680302,0.9917454683,0.7136285707,2.3114871274,1.5420030518,0.3862841156,-0.6053844287,2.7009008967,-0.5851597215,1.6537284138,-0.1678289932,,,
1.6171875000,103,0.5710597159,2.2344009860,-0.4396638245,1.9273746393,1.7644007374,0.4259927299,2.8079710365,2.0424247838,1.2143123164,-0.3284484938,3.9899556282,0.6189947325,2.4618190223,1.0230703116,,,
1.6210937500,103,1.0397567113,3.0605094570,0.8354874647,2.3829929703,2.4347682809,0.2313750699,3.1345524921,2.3775476759,1.7719561299,-0.0442008693,5.0691321054,1.8595443888,3.2085125595,2.2070748498,,,
1.6250000000,104,1.4746119044,3.7578439206,2.1208193246,2.7565321437,2.9373863091,0.1563734802,3.2704147905,2.5214768780,2.0000635286,0.2477407467,5.8509067436,3.0447199029,3.8260273765,3.2913169214,,,
1.6289062500,104,1.8400080748,4.2749292469,3.3224811654,3.0177464061,3.2209779504,0.2092356436,3.2068115368,2.4644947755,1.8900704580,0.5470494014,6.2689949474,4.0842574881,4.2512531184,4.1893680940,,,
1.6328125000,104,2.1068925705,4.5701082803,4.3531504487,3.1408963421,3.2553656349,0.3823659380,2.9480171858,2.2141039743,1.4793999352,0.8515598142,6.2855172836,4.8977749231,4.4342612113,4.8296920281,,,
1.6367187500,104,2.2553367405,4.6153868477,5.1387284629,3.1074815194,3.0355015095,0.6553039386,2.5115396515,1.7945944273,0.8402162182,1.1565452217,5.8949653957,5.4221891527,4.3448065335,5.1622285515,,,
1.6406250000,105,2.2753900465,4.3988638045,5.6233411226,2.9085916529,2.5819338159,0.9967568647,1.9273225683,1.2449766826,0.0653267964,1.4539344961,5.1245551735,5.6173290695,3.9758139442,5.1623572350,,,
1.6445312500,105,2.1666248941,3.9258736666,5.7725756811,2.5464703870,1.9379450226,1.3661273712,1.2357278419,0.6149690445,-0.7462356084,1.7313662497,4.0310145605,5.4688980472,3.3435509192,4.8318567085,,,
1.6484375000,105,1.9369559274,3.2192476853,5.5750501244,2.0349877310,1.1642173653,1.7161345993,0.4843339042,-0.0409781313,-1.5028908792,1.9715629985,2.6943900771,4.9883105486,2.4850153477,4.1969970552,,,
1.6523437500,105,1.6012121212,2.3186690375,5.0426299687,1.3990602107,0.3320121422,1.9969896883,-0.2759804104,-0.6701321021,-2.1314799750,2.1528497566,1.2103917109,4.2100843705,1.4540484012,3.3047974298,,,
1.6562500000,106,1.1796040858,1.2784737621,4.2094511045,0.6731882264,-0.4843092512,2.1608150966,-0.9949925757,-1.2262139013,-2.5826165893,2.2510595449,-0.3171314342,3.1881517993,0.3174702594,2.2186907362,,,
1.6601562500,106,0.6959890168,0.1635423763,3.1294389563,-0.1008951712,-1.2147213501,2.1653588826,-1.6267440230,-1.6719271472,-2.8299179953,2.2420340518,-1.7833797964,1.9916061953,-0.8490885615,1.0137947752,,,
1.6640625000,106,0.1759034661,-0.9562156008,1.8720626473,-0.8774480452,-1.8002417269,1.9774678314,-2.1326694419,-1.9802197429,-2.8654409425,2.1039244957,-3.0900756762,0.6995660607,-1.9666766030,-0.2286974170,,,
1.6679687500,106,-0.3554142687,-2.0117857738,0.5167246069,-1.6104534685,-2.1982553875,1.5770316414,-2.4840847741,-2.1348680134,-2.6941094220,1.8195009966,-4.1531768111,-0.6048775660,-2.9598628660,-1.4279908583,,,
1.6718750000,107,-0.8745745538,-2.9403952320,-0.8532715974,-2.2572244830,-2.3859347075,0.9613368083,-2.6638383812,-2.1303839696,-2.3292005731,1.3792964012,-4.9098271490,-1.8410396078,-3.7637872114,-2.5102187121,,,
1.6757812500,107,-1.3607432154,-3.6896605868,-2.1562652225,-2.7813037704,-2.3614824916,0.1488991784,-2.6670286053,-1.9712220524,-1.7898884294,0.7859228312,-5.3231143741,-2.9364362363,-4.3297846687,-3.4138577861,,,
1.6796875000,107,-1.7954204518,-4.2203985681,-3.3169038285,-3.1544470937,-2.1432559637,-0.8185580276,-2.5008338517,-1.6705786644,-1.1007214228,0.0586707682,-5.3835661243,-3.8312292472,-4.6283179597,-4.0931335360,,,
1.6835937500,107,-2.1616595184,-4.5082689908,-4.2700680821,-3.3578591355,-1.7670768227,-1.8770757953,-2.1835951073,-1.2493281321,-0.2922491986,-0.7634988943,-5.1073153957,-4.4810537978,-4.6490107398,-4.5192654128,,,
1.6875000000,108,-2.4433519172,-4.5444238179,-4.9642648957,-3.3829335524,-1.2820342218,-2.9447952746,-1.7432994415,-0.7354977233,0.5979345122,-1.6224503815,-4.5318876909,-4.8584762513,-4.3986702737,-4.6800984989,,,
1.6914062500,108,-2.6250702680,-4.3351163467,-5.3643529704,-3.2315061766,-0.7449952099,-3.9291667407,-1.2155390284,-0.1641024006,1.5240550470,-2.4456573023,-3.7110651986,-4.9535529871,-3.8987130003,-4.5789045233,,,
1.6953125000,108,-2.6925511379,-3.9001142255,-5.4532334974,-2.9153916470,-0.2142791663,-4.7357090877,-0.6409166950,0.4236159697,2.4314202837,-3.1544578967,-2.7100483158,-4.7737859432,-3.1831463389,-4.2329036386,,,
1.6992187500,108,-2.6336494010,-3.2701047855,-5.2323694464,-2.4551393077,0.2565254603,-5.2769112261,-0.0619245199,0.9825160353,3.2572579815,-3.6738429075,-1.6012726602,-4.3433380809,-2.2973040237,-3.6716519889,,,
1.7031250000,109,-2.4396544073,-2.4837952671,-4.7213253289,-1.8783154641,0.6235502189,-5.4805873490,0.4804403330,1.4674108779,3.9343652765,-3.9418331002,-0.4603972335,-3.7010918212,-1.2965282268,-2.9351668884,,,
1.7070312500,109,-2.1069167288,-1.5854001294,-3.9564758775,-1.2176303488,0.8560670939,-5.2974915679,0.9499121124,1.8376477315,4.3979871068,-3.9170627521,0.6381311862,-2.8973071607,-0.2437842739,-2.0716005866,,,
1.7109375000,109,-1.6386507760,-0.6226639665,-2.9887859974,-0.5089660151,0.9387661437,-4.7077515371,1.3176845663,2.0615945521,4.5949556470,-3.5837895811,1.6259925769,-1.9891296759,0.7942469680,-1.1343404634,,,
1.7148437500,109,-1.0466746564,0.3548924551,-1.8805447063,0.2107008774,0.8734451792,-3.7252271205,1.5643860858,2.1202785858,4.4926420590,-2.9541947921,2.4457883208,-1.0356678544,1.7522668339,-0.1785872124,,,
1.7187500000,110,-0.3527630611,1.2978501721,-0.7012090674,0.9053304191,0.6799422353,-2.3988054198,1.6811458179,2.0094423438,4.0847666551,-2.0682566111,3.0547661864,-0.0935153541,2.5716744367,0.7422659083,,,
1.7226562500,110,0.4107816458,2.1590028128,0.4772020422,1.5415606775,0.3952041279,-0.8100957037,1.6696534082,1.7395692085,3.3923207673,-0.9913796108,3.4267828176,0.7866811563,3.2050073251,1.5799312051,,,
1.7265625000,110,1.2017407211,2.8956075425,1.5846846872,2.0900114456,0.0692259660,0.9322500573,1.5412381143,1.3340470294,2.4601175455,0.1904502438,3.5526043778,1.5625325207,3.6189333811,2.2937663920,,,
1.7304687500,110,1.9700529925,3.4716173814,2.5574860312,2.5262012919,-0.2423458861,2.7007703492,1.3152033081,0.8262463499,1.3511892260,1.3783406377,3.4393414066,2.2014082494,3.7959387507,2.8524522213,,,
1.7343750000,111,2.6613614292,3.8596813951,3.3418582840,2.8312815381,-0.4874721344,4.3590223281,1.0167843772,0.2564317181,0.1411861563,2.4707464674,3.1097492830,2.6814345705,3.7351621853,3.2349882289,,,
1.7382812500,111,3.2216865123,4.0426213287,3.8972385266,2.9927727601,-0.6262342540,5.7723074699,0.6750193377,-0.3310027597,-1.0866047007,3.3749192035,2.6013275635,2.9919962414,3.4525337315,3.4312044217,,,
1.7421875000,111,3.6025876620,4.0141360892,4.1987057301,3.0052695360,-0.6362562336,6.8189246047,0.3206161575,-0.8901317756,-2.2465042732,4.0172831053,1.9643559208,3.1334899599,2.9798371631,3.4417876928,,,
1.7460937500,111,3.7660660105,3.7786958732,4.2384581775,2.8708347690,-0.5141759168,7.4015614313,-0.0162539653,-1.3764690252,-3.2569550960,4.3505139759,1.2579509671,3.1160920486,2.3620375761,3.2776189992,,,
1.7500000000,112,3.6885429971,3.3507866660,4.0259774387,2.5987927415,-0.2740049995,7.4579230100,-0.3083294443,-1.7506928759,-4.0480724590,4.3561495279,0.5440185159,2.9575711822,1.6525001180,2.9582107755,,,
1.7539062500,112,3.3634544945,2.7537035633,3.5866372744,2.2048875754,0.0559655368,6.9689925457,-0.5337742321,-1.9829221308,-4.5686271564,4.0430570528,-0.1199297445,2.6805099988,0.9065202960,2.5092947272,,,
1.7578125000,112,2.8022673357,2.0180555244,2.9588531172,1.7100702281,0.4364868970,5.9630156736,-0.6785668794,-2.0566668578,-4.7906138866,3.4432280478,-0.6874127115,2.3095040864,0.1745172272,1.9600237167,,,
1.7617187500,112,2.0340165031,1.1801949794,2.1903154026,1.1392695914,0.8208003703,4.5138756426,-0.7382122695,-1.9712577579,-4.7106529368,2.6066738809,-1.1274134091,1.8689196114,-0.5032391094,1.3405627515,,,
1.7656250000,113,1.1037205694,0.2808850068,1.3341385764,0.5203738352,1.1589404545,2.7338899119,-0.7181473786,-1.7418445597,-4.3488965633,1.5967044866,-1.4256480106,1.3816647373,-1.0988218595,0.6808101589,,,
1.7695312500,113,0.0700963674,-0.6355628668,0.4456651027,-0.1165443136,1.4034751349,0.7624885049,-0.6325063040,-1.3968359632,-3.7466187439,0.4859939057,-1.5827446999,0.8691728656,-1.5953668494,0.0105122860,,,
1.7734375000,113,-0.9973024279,-1.5218435983,-0.4198545095,-0.7398949533,1.5162757308,-1.2470545686,-0.5014651538,-0.9735032995,-2.9629197717,-0.6469697765,-1.6103844729,0.3523534092,-1.9833723936,-0.6397386371,,,
1.7773437500,113,-2.0218976254,-2.3285860675,-1.2091913971,-1.3174332906,1.4748341216,-3.1409228407,-0.3478667139,-0.5129213255,-2.0698143285,-1.7218779067,-1.5269848146,-0.1472500845,-2.2566323955,-1.2377651545,,,
1.7812500000,114,-2.9254097438,-3.0065076222,-1.8735627058,-1.8176819715,1.2762459831,-4.7770018979,-0.1939432250,-0.0552848611,-1.1446453327,-2.6617428516,-1.3543325961,-0.6070912209,-2.4098230652,-1.7504637999,,,
1.7851562500,114,-3.6347524956,-3.5101629703,-2.3721079079,-2.2120693069,0.9375511755,-6.0357101254,-0.0587108029,0.3638541553,-0.2598990545,-3.3992228931,-1.1157790272,-1.0046965702,-2.4387016035,-2.1462668195,,,
1.7890625000,114,-4.0896389174,-3.8027461590,-2.6760475459,-2.4775131414,0.4923893447,-6.8292702376,0.0437665155,0.7163316170,0.5274837738,-3.8832229163,-0.8356433243,-1.3200274339,-2.3424059175,-2.3988139510,,,
1.7929687500,114,-4.2494044405,-3.8607545041,-2.7723245507,-2.5988537049,-0.0147806023,-7.1089319782,0.1053139212,0.9831644541,1.1837958591,-4.0841571018,-0.5388773327,-1.5382099971,-2.1263088669,-2.4906801376,,,
1.7968750000,115,-4.0976749442,-3.6773595177,-2.6654490783,-2.5705616634,-0.5350085600,-6.8691113947,0.1239296437,1.1553927591,1.7002623801,-3.9963070604,-0.2501235678,-1.6515480859,-1.8037951331,-2.4161657569,,,
1.8007812500,115,-3.6442127537,-3.2638563196,-2.3769454622,-2.3974307519,-1.0201504470,-6.1472630200,0.1034972114,1.2338970065,2.0881749315,-3.6366643448,0.0080757127,-1.6602275608,-1.3960818756,-2.1826949642,,,
1.8046875000,115,-2.9240007275,-2.6491329773,-1.9426454605,-2.0942412894,-1.4265674381,-5.0189498412,0.0529340079,1.2281834879,2.3697190414,-3.0410284735,0.2174555604,-1.5718474818,-0.9302379715,-1.8107673975,,,
1.8085937500,115,-1.9939766763,-1.8774754841,-1.4085070764,-1.6845179179,-1.7177349138,-3.5888646946,-0.0151859113,1.1542933719,2.5683332194,-2.2591003889,0.3657800313,-1.4003651405,-0.4362966142,-1.3324976013,,,
1.8125000000,116,-0.9278630501,-1.0051415221,-0.8256443880,-1.1985567729,-1.8666876126,-1.9798029397,-0.0863845360,1.0321189862,2.7018789085,-1.3500825479,0.4475291688,-1.1649672312,0.0554735699,-0.7888205368,,,
1.8164062500,116,0.1903992249,-0.0959947641,-0.2452252103,-0.6709544402,-1.8585873525,-0.3217881550,-0.1461950492,0.8824522655,2.7795311270,-0.3788391013,0.4634494727,-0.8888681654,0.5164595868,-0.2257389881,,,
1.8203125000,116,1.2739172805,0.7836396615,0.2861091161,-0.1379033263,-1.6926561190,1.2576869021,-0.1820315443,0.7241189457,2.8011896831,0.5883791061,0.4194168744,-0.5976590537,0.9208115808,0.3097340622,,,
1.8242187500,116,2.2400307582,1.5705796179,0.7298615765,0.3655185556,-1.3825276521,2.6427309537,-0.1847847502,0.5716790171,2.7582435585,1.4889394335,0.3251451103,-0.3170447222,1.2463888941,0.7734620225,,,
1.8281250000,117,3.0167346539,2.2103016374,1.0582134870,0.8078794120,-0.9548326603,3.7378865709,-0.1499026349,0.4342852575,2.6357486202,2.2686142420,0.1930584353,-0.0702541039,1.4760864022,1.1278088117,,,
1.8320312500,117,3.5479116299,2.6617741325,1.2555240015,1.1635940330,-0.4465414228,4.4761870534,-0.0778256402,0.3160331271,2.4165380665,2.8849042826,0.0374271639,0.1243777639,1.5994569244,1.3450146368,,,
1.8359375000,117,3.7972028216,2.9010224285,1.3188177316,1.4146653202,0.0983515966,4.8251209507,0.0261607379,0.2174190091,2.0870165159,3.3082294757,-0.1263578588,0.2551443709,1.6138847319,1.4100713900,,,
1.8398437500,117,3.7503869869,2.9228306067,1.2571457015,1.5518168394,0.6325770787,4.7891033691,0.1524826727,0.1368594289,1.6431415570,3.5212341043,-0.2826831784,0.3175948345,1.5244429341,1.3224854171,,,
1.8437500000,118,3.4160257967,2.7401962330,1.0896877554,1.5748516385,1.1097841793,4.4075622991,0.2881304251,0.0713069970,1.0944931863,3.5172589187,-0.4169921512,0.3139175793,1.3422907941,1.0963355431,,,
1.8476562500,118,2.8242355533,2.3817509606,0.8427763000,1.4922126704,1.4890231871,3.7486214702,0.4178273066,0.0159381216,0.4650151107,3.2992947931,-0.5171935462,0.2514759191,1.0825777326,0.7586276443,,,
1.8515625000,118,2.0238767360,1.8880487680,0.5465393776,1.3199726399,1.7390137559,2.8993525937,0.5255687065,-0.0360707916,-0.2094475603,2.8802370789,-0.5745024368,0.1413866910,0.7633166450,0.3466801718,,,
1.8554687500,118,1.0788084347,1.3078032091,0.2321205733,1.0805678627,1.8414901466,1.9543622428,0.5964662281,-0.0925113695,-0.8854015624,2.2842293969,-0.5831076921,-0.0019953263,0.4059740440,-0.0945800044,,,
1.8593750000,119,0.0636945269,0.6945441619,-0.0699894268,0.8013521968,1.7929473671,1.0047320424,0.6186532223,-0.1597030065,-1.5161722194,1.5479170125,-0.5388297355,-0.1606050172,0.0370063139,-0.5152589172,,,
1.8632812500,119,-0.9407117171,0.1032245920,-0.3309299418,0.5126982801,1.6043169979,0.1289417726,0.5848828232,-0.2398655874,-2.0559098002,0.7201234252,-0.4378773053,-0.3122023870,-0.3116028942,-0.8639067360,,,
1.8671875000,119,-1.8532360146,-0.4140902294,-0.5248621614,0.2452962792,1.2984826431,-0.6133575624,0.4934886696,-0.3300256088,-2.4635246269,-0.1409461607,-0.2770799779,-0.4313770205,-0.6045590344,-1.0927190769,,,
1.8710937500,119,-2.5990368803,-0.8137096966,-0.6315653417,0.0266497317,0.9061418461,-1.1845717134,0.3486161979,-0.4232646586,-2.7071728129,-0.9727320237,-0.0561341392,-0.4928093482,-0.8084074276,-1.1644734460,,,
1.8750000000,120,-3.1167751699,-1.0660592345,-0.6398581774,-0.1226684052,0.4611458418,-1.5696605937,0.1598984704,-0.5115162834,-2.7690930890,-1.7144121065,0.2190286119,-0.4761568534,-0.8979533831,-1.0595303265,,,
1.8789062500,120,-3.3648536434,-1.1599898256,-0.5504240578,-0.1920563137,-0.0033492937,-1.7742949129,-0.0582114880,-0.5881826168,-2.6494567753,-2.3127727757,0.5335591912,-0.3707934052,-0.8615426663,-0.7804513137,,,
1.8828125000,120,-3.3254041250,-1.1042579878,-0.3766106350,-0.1823760470,-0.4571018683,-1.8210759116,-0.2874796973,-0.6493188616,-2.3674638370,-2.7271481383,0.8631802364,-0.1786096882,-0.7036231380,-0.3526020709,,,
1.8867187500,120,-3.0054369205,-0.9258479649,-0.1427766100,-0.1056004405,-0.8735256519,-1.7443273188,-0.5075671638,-0.6934772781,-1.9586434551,-2.9333024091,1.1760854660,0.0858657063,-0.4445737754,0.1791050124,,,
1.8906250000,121,-2.4354501172,-0.6658151053,0.1191067311,0.0170645596,-1.2298384662,-1.5841895911,-0.6984830692,-0.7212256083,-1.4687996828,-2.9261330701,1.4363840644,0.3975108753,-0.1187318190,0.7558064668,,,
1.8945312500,121,-1.6662111394,-0.3736948918,0.3734676434,0.1579831493,-1.5074747925,-1.3808939475,-0.8434609999,-0.7350783377,-0.9464096568,-2.7205913001,1.6080454910,0.7237465176,0.2287158808,1.3110280005,,,
1.8984375000,121,-0.7642553175,-0.1013345867,0.5850103730,0.2863677826,-1.6929434644,-1.1699705584,-0.9314426035,-0.7395525811,-0.4357732179,-2.3499282257,1.6588788553,1.0280109938,0.5461253227,1.7770840124,,,
1.9023437500,121,0.1936887041,0.1033038591,0.7223197219,0.3718703896,-1.7786361958,-0.9787978276,-0.9583281863,-0.7404337405,0.0273685062,-1.8608808553,1.5646150428,1.2734746697,0.7814508968,2.0916734319,,,
1.9062500000,122,1.1271651809,0.2019370338,0.7613015331,0.3883911703,-1.7629891916,-0.8245624404,-0.9266153771,-0.7427916405,0.4172762570,-1.3066084035,1.3130658846,1.4271596630,0.8895868756,2.2047919264,,,
1.9101562500,122,1.9588635259,0.1708318362,0.6883573902,0.3177848272,-1.6498587069,-0.7135492742,-0.8436944428,-0.7483828231,0.7174874631,-0.7392621395,0.9077757601,1.4642942687,0.8395779982,2.0854038026,,,
1.9140625000,122,2.6211564432,0.0041662380,0.5028754815,0.1529138242,-1.4474972669,-0.6417304873,-0.7195189397,-0.7537202165,0.9193394318,-0.2041632937,0.3701829320,1.3722130667,0.6199860439,1.7267105427,,,
1.9179687500,122,3.0616310723,-0.2845907564,0.2185179421,-0.1004874188,-1.1676437814,-0.5967088715,-0.5644307530,-0.7496957458,1.0209592748,0.2634767300,-0.2605179223,1.1529530967,0.2414388557,1.1488401613,,,
1.9218750000,123,3.2472226645,-0.6634759273,-0.1370606742,-0.4234885135,-0.8248951820,-0.5609289764,-0.3876467920,-0.7226538436,1.0270859827,0.6397916986,-0.9300210630,0.8239976622,-0.2635295069,0.3983190610,,,
1.9257812500,123,3.1667794132,-1.0849542610,-0.5241875806,-0.7853578163,-0.4360525240,-0.5156278761,-0.1965123548,-0.6561546064,0.9491582611,0.9126944715,-1.5737163081,0.4170551814,-0.8427445213,-0.4556568480,,,
1.9296875000,123,2.8319018513,-1.4907978575,-0.8947869212,-1.1466686190,-0.0190053699,-0.4445528041,0.0036488121,-0.5328369949,0.8047542866,1.0822876446,-2.1231065630,-0.0249888562,-1.4284911215,-1.3277315390,,,
1.9335937500,123,2.2758212778,-1.8186505373,-1.1974512739,-1.4637936848,0.4088665475,-0.3364601657,0.2092503159,-0.3364915468,0.6159570975,1.1608745270,-2.5133122628,-0.4527257912,-1.9437171796,-2.1251073552,,,
1.9375000000,124,1.5501489283,-2.0097102445,-1.3835700530,-1.6941078303,0.8321403990,-0.1859471865,0.4177389496,-0.0548656798,0.4071218506,1.1714830830,-2.6910047382,-0.8161060931,-2.3105463521,-2.7577294562,,,
1.9414062500,124,0.7196972992,-2.0164625453,-1.4137764547,-1.8010591363,1.2377503769,0.0071135718,0.6264916927,0.3166989002,0.2030880210,1.1442575949,-2.6216493841,-1.0708209420,-2.4604178723,-3.1488048922,,,
1.9453125000,124,-0.1438727596,-1.8090582096,-1.2636546179,-1.7584227217,1.6139416124,0.2388365236,0.8315748905,0.7716702772,0.0286349467,1.1113022860,-2.2945431799,-1.1840975194,-2.3440787061,-3.2440887102,,,
1.9492187500,124,-0.9685053596,-1.3791902330,-0.9276516582,-1.5533875741,1.9482777612,0.5025480736,1.0268490968,1.2902550777,-0.0909556409,1.1014705308,-1.7244438173,-1.1388470640,-1.9392842073,-3.0183583863,,,
1.9531250000,125,-1.6875023413,-0.7412131445,-0.4206669992,-1.1884210082,2.2257660620,0.7894013456,1.2038014676,1.8398706109,-0.1294391564,1.1363623928,-0.9497645583,-0.9356970259,-1.2548353371,-2.4782130377,,,
1.9570312500,125,-2.2445021526,0.0687951760,0.2224018394,-0.6819852377,2.4280277511,1.0880646657,1.3520623859,2.3778827393,-0.0610442989,1.2276905347,-0.0286385158,-0.5932642148,-0.3309837568,-1.6614670261,,,
1.9609375000,125,-2.5981353262,0.9950209755,0.9484305807,-0.0681247528,2.5338923976,1.3836141043,1.4601618572,2.8552829807,0.1347984331,1.3752835964,0.9654191545,-0.1474080948,0.7628176132,-0.6341772551,,,
1.9648437500,125,-2.7265188905,1.9645398404,1.6887874424,0.6052514349,2.5213347080,1.6563434122,1.5160545292,3.2200680261,0.4655648660,1.5651441663,1.9474251778,0.3502481017,1.9320479894,0.5138329348,,,
1.9687500000,126,-2.6307836305,2.8911691193,2.3634810528,1.2797100176,2.3704640723,1.8815506105,1.5073210463,3.4201918188,0.9168134767,1.7679950093,2.8251263416,0.8351473938,3.0633531430,1.6749812416,,,
1.9726562500,126,-2.3360543535,3.6816356133,2.8876691114,1.8914083513,2.0671293611,2.0311031254,1.4214460747,3.4071005879,1.4461780080,1.9397022833,3.5050607644,1.2350664290,4.0337605934,2.7321948732,,,
1.9765625000,126,-1.8885440276,4.2445865305,3.1808903733,2.3776268513,1.6064807884,2.0767854131,1.2467993924,3.1410157469,1.9837770696,2.0250109719,3.9014725680,1.4783490097,4.7232607690,3.5699268408,,,
1.9804687500,126,-1.3486848344,4.5016318378,3.1780615754,2.6838044435,0.9957004392,1.9945797252,0.9746922710,2.5980929463,2.4406098623,1.9650411946,3.9473769660,1.5043274267,5.0296748181,4.0872458171,,,
1.9843750000,127,-0.7817416460,4.3983637697,2.8401094842,2.7699410587,0.2553243238,1.7686591147,0.6022655908,1.7781057670,2.7234610755,1.7075596411,3.6054564166,1.2739468092,4.8832976519,4.2109865234,,,
1.9882812500,127,-0.2482462250,3.9129243735,2.1618413117,2.6154386784,-0.5809206700,1.3941772582,0.1354012682,0.7103731633,2.7522718482,1.2179430757,2.8760012483,0.7782038001,4.2583185485,3.9063211981,,,
1.9921875000,127,0.2035944459,3.0603416957,1.1753914345,2.2218689054,-1.4674332745,0.8786121858,-0.4092772206,-0.5442379696,2.4751039396,0.4884654677,1.7999761004,0.0425271085,3.1786809347,3.1826046108,,,
1.9960937500,127,0.5424119759,1.8920986374,-0.0511875924,1.6135332398,-2.3488645472,0.2419351583,-1.0039083594,-1.8964143481,1.8770775156,-0.4559710576,0.4568075979,-0.8737331402,1.7174226339,2.0936255790,,,
2.0000000000,128,0.7552188213,0.4915594293,-1.4195572855,0.8359084550,-3.1630076782,-0.4840203008,-1.6105058484,-3.2364213740,0.9822777575,-1.5566919012,-1.0422655573,-1.8824975166,-0.0100110579,0.7327307387,,,
2.0039062500,128,0.8467459027,-1.0335418744,-2.8098154635,-0.0478393549,-3.8446388355,-1.2568000820,-2.1834720940,-4.4456136474,-0.1498340126,-2.7249284029,-2.5639760935,-2.8758882869,-1.8569929485,-0.7759493492,,,
2.0078125000,128,0.8372462613,-2.5604108147,-4.0912337675,-0.9620459204,-4.3303927446,-2.0252097596,-2.6732187049,-5.4092029930,-1.4308511167,-3.8499524407,-3.9648544938,-3.7376015387,-3.6596733881,-2.2889207375,,,
2.0117187500,128,0.7589779859,-3.9615449710,-5.1342288310,-1.8251514783,-4.5643864822,-2.7319352077,-3.0306278138,-6.0280624578,-2.7507718048,-4.8107900069,-5.1043776582,-4.3553735412,-5.2521383171,-3.6565312446,,,
2.0156250000,129,0.6513414432,-5.1156399851,-5.8229249811,-2.5572812685,-4.5040039697,-3.3169507078,-3.2120709605,-6.2281935362,-3.9861334835,-5.4901234418,-5.8587608025,-4.6333403939,-6.4817264530,-4.7373385194,,,
2.0195312500,129,0.5548758959,-5.9184764526,-6.0674811208,-3.0881617595,-4.1252520530,-3.7216985453,-3.1845422501,-5.9676535942,-5.0100983732,-5.7886020387,-6.1343386442,-4.5033106276,-7.2237360516,-5.4127843067,,,
2.0234375000,129,0.5047909596,-6.2929072858,-5.8149735052,-3.3645344811,-3.4272916933,-3.8940115444,-2.9302396533,-5.2414033312,-5.7053054381,-5.6377718550,-5.8790270757,-3.9341064002,-7.3945538928,-5.6007612510,,,
2.0273437500,129,0.5251035627,-6.1967679740,-5.0572091042,-3.3560748215,-2.4357250512,-3.7937065506,-2.4498404932,-4.0841191788,-5.9783547070,-5.0100861525,-5.0900812768,-2.9378621810,-6.9616048136,-5.2660868867,,,
2.0312500000,130,0.6245174821,-5.6275295693,-3.8338292186,-3.0588614645,-1.2039217724,-3.3985045174,-1.7638882039,-2.5701132472,-5.7729420086,-3.9247265790,-3.8165663260,-1.5718700346,-5.9481789895,-4.4258715998,,,
2.0351562500,130,0.7947165305,-4.6230631714,-2.2300326879,-2.4959400784,0.1882726072,-2.7094642572,-0.9120916181,-0.8095251684,-5.0788183147,-2.4485052146,-2.1560299589,0.0646818396,-4.4321306186,-3.1488859017,,,
2.0390625000,130,1.0112060157,-3.2585157427,-0.3693090185,-1.7150600986,1.6387940430,-1.7548798897,0.0493385602,1.0594170167,-3.9349752963,-0.6916288891,-0.2459068297,1.8387682207,-2.5386758793,-1.5492050931,,,
2.0429687500,130,1.2366771587,-1.6395272539,1.5981916110,-0.7838017452,3.0309703614,-0.5916505347,1.0521066493,2.8820943075,-2.4262099184,1.2018912257,1.7496570637,3.5961064138,-0.4278754681,0.2254516742,,,
2.0468750000,131,1.4265776652,0.1076329566,3.5105468766,0.2174224367,4.2445685945,0.6968040028,2.0217299952,4.5026041908,-0.6735171390,3.0689529201,3.6564565736,5.1774795140,1.7219621467,2.0098478241,,,
2.0507812500,131,1.5360069266,1.8477934335,5.2101335092,1.2035050992,5.1691476642,2.0066648168,2.8844131271,5.7803491964,1.1793630409,4.7454809070,5.3082215908,6.4364645277,3.7325434907,3.6397024989,,,
2.0546875000,131,1.5267641744,3.4489265852,6.5585219955,2.0927761034,5.7173101838,3.2235603580,3.5740839496,6.6052851055,2.9802324160,6.0848253754,6.5633459676,7.2553906713,5.4428269996,4.9695498895,,,
2.0585937500,131,1.3734694801,4.7931530621,7.4484519391,2.8142124050,5.8350788444,4.2348281257,4.0385799472,6.9093070938,4.5814108199,6.9731076949,7.3182121684,7.5569867597,6.7233295068,5.8872360025,,,
2.0625000000,132,1.0679065038,5.7857584163,7.8120289798,3.3131101882,5.5074294840,4.9423170401,4.2440499754,6.6723536168,5.8507527822,7.3392528462,7.5158653174,7.3106058884,7.4865501050,6.3232657386,,,
2.0664062500,132,0.6209747329,6.3616337975,7.6249088484,3.5548658059,4.7585733761,5.2738042300,4.1770221533,5.9229669899,6.6811372164,7.1590867483,7.1495285831,6.5332022305,7.6930004733,6.2544178262,,,
2.0703125000,132,0.0619397169,6.4888194638,6.9065026993,3.5267710428,3.6480356760,5.1913786524,3.8441390744,4.7337884031,6.9988834613,6.4542274540,6.2608853707,5.2858417811,7.3522967310,5.7020953169,,,
2.0742187500,132,-0.5648774335,6.1691896656,5.7164590714,3.2379759460,2.2642224273,4.6956285492,3.2700654600,3.2129049286,6.7707666927,5.2871843725,4.9335237475,3.6666216732,6.5189410145,4.7266351698,,,
2.0781250000,133,-1.2053073596,5.4367792632,4.1480765261,2.7179159916,0.7168876635,3.8251630874,2.4943440820,1.4924365711,6.0085911112,3.7541417871,3.2826593704,1.8009000376,5.2833280235,3.4191643256,,,
2.0820312500,133,-1.8014120842,4.3544840385,2.3197106651,2.0134803893,-0.8708926499,2.6518490025,1.5679085411,-0.2838373126,4.7702078926,1.9765122945,1.4429245990,-0.1700979855,3.7598039526,1.8924371921,,,
2.0859375000,133,-2.2974129461,3.0095816123,0.3652945501,1.1850775357,-2.3713879816,1.2728785150,0.5496052671,-1.9721676195,3.1563038560,0.0917605602,-0.4438963869,-2.1011169447,2.0742937055,0.2714620543,,,
2.0898437500,133,-2.6448193811,1.5078909235,-1.5753328115,0.3016658787,-3.6619177996,-0.1989257753,-0.4973219364,-3.4391060948,1.3028416267,-1.7564341871,-2.2399672267,-3.8541626545,0.3534635571,-1.3160074937,,,
2.0937500000,134,-2.8066285023,-0.0339964055,-3.3661525097,-0.5651390503,-4.6355661562,-1.6453549029,-1.5089680071,-4.5706944935,-0.6304370650,-3.4286332516,-3.8210484846,-5.3086927012,-1.2840072975,-2.7493333441,,,
2.0976562500,134,-2.7607293295,-1.4985879030,-4.8847418354,-1.3475461700,-5.2119898255,-2.9527752177,-2.4247033967,-5.2812216454,-2.4744648338,-4.8003154952,-5.0848697397,-6.3704064699,-2.7346034594,-3.9250110089,,,
2.1015625000,134,-2.5024229448,-2.7785467219,-6.0315906868,-1.9879424606,-5.3465552506,-4.0212439218,-3.1909907864,-5.5213803588,-4.0667166301,-5.7719398064,-5.9580763977,-6.9781218803,-3.9161933660,-4.7658009492,,,
2.1054687500,134,-2.0454214886,-3.7868463931,-6.7376700240,-2.4440873911,-5.0357569896,-4.7722713005,-3.7646572139,-5.2842914094,-5.2665547226,-6.2773461634,-6.4008401869,-7.1076882111,-4.7729383083,-5.2271643608,,,
2.1093750000,135,-1.4205919058,-4.4636908282,-6.9688345476,-2.6922685033,-4.3174924824,-5.1546365515,-4.1153290109,-4.6071433351,-5.9682462075,-6.2895827107,-6.4079164230,-6.7718787718,-5.2776183003,-5.2992490840,,,
2.1132812500,135,-0.6727789189,-4.7793581981,-6.7268355167,-2.7282586561,-3.2662497972,-5.1476308359,-4.2269180459,-3.5671354573,-6.1107682235,-5.8235430019,-6.0059665007,-6.0166199923,-5.4305257835,-5.0042294340,,,
2.1171875000,135,0.1428949123,-4.7341661868,-6.0480305862,-2.5665313733,-1.9846398328,-4.7614300156,-4.0981513744,-2.2725452953,-5.6842700922,-4.9350099280,-5.2485657272,-4.9154420863,-5.2557438214,-4.3907989082,,,
2.1210937500,135,0.9643734979,-4.3570836509,-5.0006315478,-2.2381107434,-0.5929075905,-4.0349114787,-3.7421685218,-0.8511436665,-4.7327351861,-3.7158349859,-4.2106178230,-3.5636308972,-4.7966564910,-3.5279712961,,,
2.1250000000,136,1.7260254308,-3.7032323241,-3.6801610964,-1.7870959395,0.7825195335,-3.0315528855,-3.1851932875,0.5621138586,-3.3518733467,-2.2852077820,-2.9827378093,-2.0719841175,-4.1118401535,-2.4991009829,,,
2.1289062500,136,2.3629129747,-2.8493993240,-2.2022104588,-1.2658939536,2.0207298834,-1.8338818819,-2.4642949951,1.8371630555,-1.6814573275,-0.7774602037,-1.6649421088,-0.5592011181,-3.2709959902,-1.3957339886,,,
2.1328125000,136,2.8165211519,-1.8866971437,-0.6920511300,-0.7294719169,3.0174258817,-0.5366711354,-1.6243940385,2.8602015104,0.1079604158,0.6723199521,-0.3587675344,0.8577237874,-2.3497640100,-0.3104774122,,,
2.1367187500,136,3.0415550792,-0.9106409147,0.7280734347,-0.2292557335,3.6942991894,0.7609110897,-0.7148949909,3.5437174921,1.8328998340,1.9426913267,0.8420663210,2.0745028153,-1.4227952608,0.6712789971,,,
2.1406250000,137,3.0123949441,-0.0103589802,1.9517800301,0.1924824840,4.0055275868,1.9635890817,0.2135431066,3.8341791155,3.3170951394,2.9377521728,1.8608596169,3.0100593600,-0.5559369363,1.4797438241,,,
2.1445312500,137,2.7274247128,0.7406998643,2.8988076204,0.5068653435,3.9406379907,2.9876239088,1.1116961563,3.7163462207,4.4109074790,3.5946152337,2.6446712323,3.6142323451,0.2004040383,2.0673968105,,,
2.1484375000,137,2.2100215649,1.2908588751,3.5208392771,0.7006178796,3.5236452952,3.7666636455,1.9338079969,3.2136780793,5.0071486495,3.8858991700,3.1669447820,3.8711115111,0.8147419096,2.4124772859,,,
2.1523437500,137,1.5060988944,1.6128515207,3.8026454739,0.7760519941,2.8089853607,4.2551692553,2.6391495493,2.3851007786,5.0513995408,3.8180287209,3.4260205149,3.7978252213,1.2742681583,2.5189500408,,,
2.1562500000,138,0.6790148198,1.7039136119,3.7596832951,0.7491379660,1.8750979941,4.4295639124,3.1934303502,1.3189483187,4.5461168286,3.4268795841,3.4410235872,3.4398376085,1.5820460021,2.4136694154,,,
2.1601562500,138,-0.1970217908,1.5844197517,3.4336822749,0.6462735225,0.8165764220,4.2878064676,3.5702892528,0.1249466923,3.5487954609,2.7722577792,3.2470768371,2.8643032796,1.7536383158,2.1418331261,,,
2.1640625000,138,-1.0440815859,1.2955082681,2.8872644519,0.5004174585,-0.2643148571,3.8481536476,3.7528043583,-1.0751447961,2.1650026734,1.9320683528,2.8911251136,2.1527334624,1.8145697721,1.7615277472,,,
2.1679687500,138,-1.7875220061,0.8953476289,2.1978893011,0.3471125374,-1.2662013990,3.1475072482,3.7346851248,-2.1578513271,0.5372955309,0.9961667775,2.4284336286,1.3935431896,1.7985191448,1.3376344601,,,
2.1718750000,139,-2.3624735501,0.4534044926,1.4509176658,0.2206358853,-2.0970037459,2.2392333268,3.5207523522,-3.0089146715,-1.1689378296,0.0592692343,1.9188093767,0.6744473308,1.7448668618,0.9350360591,,,
2.1757812500,139,-2.7195652916,0.0425363804,0.7316099278,0.1502570873,-2.6820647003,1.1900519854,3.1265276766,-3.5343330332,-2.7815983091,-0.7875730048,1.4214526578,0.0745000128,1.6941745778,0.6112158070,,,
2.1796875000,139,-2.8295921063,-0.2702716269,0.1164130115,0.1566202349,-2.9715304245,0.0757610139,2.5770664542,-3.6706148033,-4.1386076974,-1.4664063504,0.9882612476,-0.3440147148,1.6814828819,0.4089595533,,,
2.1835937500,139,-2.6865596397,-0.4327911322,-0.3353442772,0.2486510576,-2.9458675700,-1.0239361046,1.9053294299,-3.3928297772,-5.1036376938,-1.9208506512,0.6568323439,-0.5428025400,1.7291197706,0.3505849743,,,
2.1875000000,140,-2.3083699048,-0.4141430864,-0.5877646327,0.4217785723,-2.6180650698,-2.0308134100,1.1503320005,-2.7187821797,-5.5792115597,-2.1211826989,0.4452970516,-0.5121978299,1.8417029542,0.4352697363,,,
2.1914062500,140,-1.7346714738,-0.2079363500,-0.6314006647,0.6581897862,-2.0315982185,-2.8730987114,0.3551574133,-1.7080633943,-5.5159051740,-2.0645232160,0.3507426044,-0.2717426587,2.0053537238,0.6402584823,,,
2.1953125000,140,-1.0220924671,0.1680320103,-0.4826318083,0.9292171705,-1.2544777016,-3.4899112341,-0.4351959953,-0.4558693414,-4.9168532185,-1.7707276849,0.3515305295,0.1335688449,2.1911672327,0.9253832035,,,
2.1992187500,140,-0.2378034100,0.6746562590,-0.1800741979,1.1992178015,-0.3708572851,-3.8354416114,-1.1761952606,0.9172381943,-3.8371046289,-1.2765130322,0.4122931004,0.6401432897,2.3610656307,1.2392929326,,,
2.2031250000,141,0.5473418553,1.2559864061,0.2208526058,1.4299726782,0.5280347829,-3.8830399183,-1.8263968965,2.2776887799,-2.3776259604,-0.6306922513,0.4897912336,1.1737029287,2.4735963960,1.5256762640,,,
2.2070312500,141,1.2651148498,1.8446579964,0.6542970092,1.5848392581,1.3524954894,-3.6287797458,-2.3502225566,3.4915710355,-0.6742261371,0.1081634500,0.5383719276,1.6566748037,2.4882195898,1.7285440404,,,
2.2109375000,141,1.8553015319,2.3681061421,1.0508506956,1.6323566141,2.0221991609,-3.0934883102,-2.7206384161,4.4365375431,1.1174569696,0.8726197019,0.5148207968,2.0147127338,2.3682429653,1.7967359541,,,
2.2148437500,141,2.2702854409,2.7555220444,1.3447548136,1.5493936579,2.4733656416,-2.3221918444,-2.9213415496,5.0125597066,2.8387611875,1.5882389220,0.3830945630,2.1829975188,2.0836586712,1.6884952608,,,
2.2187500000,142,2.4789684813,2.9452761938,1.4811583744,1.3239984700,2.6649062878,-1.3805468532,-2.9480189483,5.1513254275,4.3439307047,2.1784842624,0.1193125459,2.1129235219,1.6150641439,1.3767612841,,,
2.2226562500,142,2.4697743573,2.8921221765,1.4228117151,0.9578061737,2.5825730315,-0.3487373109,-2.8083853981,4.8237638878,5.5129544379,2.5730155264,-0.2833181687,1.7788253037,0.9587657698,0.8548326037,,,
2.2265625000,142,2.2520251229,2.5731575436,1.1552291739,0.4674436873,2.2400162439,0.6860755451,-2.5209878422,4.0447001286,6.2602546596,2.7177270787,-0.8107337125,1.1833143437,0.1318006360,0.1408906817,,,
2.2304687500,142,1.8549022770,1.9914293303,0.6892000919,-0.1157929313,1.6763274044,1.6376657584,-2.1130783179,2.8733369966,6.5391963971,2.5837207456,-1.4268575907,0.3594109347,-0.8252386760,-0.7206428974,,,
2.2343750000,143,1.3236567249,1.1763562910,0.0597676885,-0.7484282785,0.9506651490,2.4283200066,-1.6180792386,1.4084346947,6.3426604368,2.1725759673,-2.0762479893,-0.6317442247,-1.8495298185,-1.6623825370,,,
2.2382812500,143,0.7135236657,0.1808238210,-0.6784392913,-1.3793047405,0.1352131264,2.9956789663,-1.0731580818,-0.2220590163,5.6997235549,1.5165667144,-2.6907854605,-1.7075806704,-2.8622374049,-2.6018920890,,,
2.2421875000,143,0.0825705618,-0.9242984371,-1.4585270284,-1.9553076752,-0.6923571185,3.2983814048,-0.5171100955,-1.8756463861,4.6687471017,0.6741986826,-3.1992680607,-2.7739031133,-3.7785663731,-3.4525331481,,,
