Time:256Hz,Epoch,Channel 1,Channel 2,Channel 3,Channel 4,Channel 5,Channel 6,Channel 7,Channel 8,Channel 9,Channel 10,Channel 11,Channel 12,Channel 13,Channel 14,Event Id,Event Date,Event Duration
0.0000000000,0,-0.0000000000,-0.0000000000,-0.0000000000,-0.0000000000,-0.0000000000,-0.0000000000,-0.0000000000,-0.0000000000,-0.0000000000,-0.0000000000,-0.0000000000,-0.0000000000,-0.0000000000,-0.0000000000,,,
0.0039062500,0,0.0094948498,0.0076487127,0.0076477083,0.0087023568,-0.0031649501,0.0068572241,-0.0005273244,0.0084391969,0.0071203840,0.0216253166,0.0100211697,0.0152964211,0.0055384113,0.0026376256,,,
0.0078125000,0,0.0667290165,0.0520620793,0.0517929484,0.0654460225,-0.0225068353,0.0534226820,-0.0036620895,0.0696842012,0.0631621116,0.1551916228,0.0674843491,0.1104480879,0.0352974499,0.0130431744,,,
0.0117187500,0,0.2125523484,0.1611269286,0.1592830477,0.2303370446,-0.0747038977,0.1938162560,-0.0109133498,0.2711040252,0.2585592557,0.5066341141,0.2009309341,0.3685690121,0.0954173254,0.0163802065,,,
0.0156250000,1,0.4001366694,0.3045532605,0.2976293915,0.5073370818,-0.1574898139,0.4304271592,-0.0166919913,0.6570311280,0.6403730258,0.9778443136,0.3377762021,0.7557728045,0.1304028175,-0.0403281503,,,
0.0195312500,1,0.4697930629,0.4140444313,0.3927134842,0.7854161526,-0.2472277476,0.6275360448,-0.0088512448,1.0852046019,1.0346502923,1.1561119922,0.3203821474,1.0592922870,0.0562621659,-0.1849958625,,,
0.0234375000,1,0.2879846557,0.5071556732,0.4492062087,0.8996348818,-0.3292542995,0.5350230941,0.0137158867,1.1984033332,1.0241392481,0.5891390298,0.1100323055,1.0519646982,-0.0991017755,-0.3008374535,,,
0.0273437500,1,-0.0763854327,0.7337222025,0.6089161363,0.7576563837,-0.4057497878,-0.0451679502,0.0247719779,0.6302465870,0.2769340848,-0.7608857485,-0.0459432664,0.7232995593,-0.1193479529,-0.1166402221,,,
0.0312500000,2,-0.3499861583,1.1911556933,1.0059286344,0.3860886886,-0.4387317657,-1.0621367411,-0.0122647538,-0.6629525767,-0.9775512557,-2.3568329103,0.2374067633,0.2982496749,0.2514756788,0.5912551987,,,
0.0351562500,2,-0.2759189305,1.6350794491,1.5120810018,-0.1494312811,-0.2855768880,-2.1432606674,-0.0998543226,-2.2293038442,-1.8511739565,-3.4039923488,1.0554420672,-0.0073986413,1.0153505092,1.7057158275,,,
0.0390625000,2,0.1083612472,1.4138885085,1.6294248339,-0.8437420618,0.2534802119,-2.7168494454,-0.1871703485,-3.3246854247,-1.4041535574,-3.3653904851,1.8853649892,-0.2630770811,1.7508610703,2.6407534367,,,
0.0429687500,2,0.3810293738,-0.1655483575,0.7061523786,-1.7362091256,1.2355049412,-2.2826790457,-0.2113309609,-3.4050920224,0.3790498315,-2.2426499518,1.7472498375,-0.8444729396,1.7712305572,2.5577283497,,,
0.0468750000,3,-0.0156913235,-3.1968157624,-1.5822767655,-2.7654913634,2.3682941888,-0.7097203635,-0.1572643745,-2.5073291793,2.1661374281,-0.4596974754,-0.1115389864,-2.1158071560,0.5689879611,0.8820024208,,,
0.0507812500,3,-1.2941506546,-6.7350811679,-4.7802469793,-3.6303664463,3.0315275563,1.5930270557,-0.0642407770,-1.1600363947,2.0639598594,1.4530475324,-3.4545560968,-3.9883008008,-1.7308437282,-2.1717461617,,,
0.0546875000,3,-2.9897466300,-9.0232217126,-7.6205255805,-3.8229908442,2.5851957980,3.7751310602,0.0229959898,0.0689811015,-0.9199766671,3.1048057807,-6.8610242389,-5.7350319903,-4.2612522646,-5.4776905208,,,
0.0585937500,3,-4.0932811820,-8.3699103766,-8.5521288378,-2.8708319459,0.7804254954,4.9136156097,0.1061496115,0.9893103917,-5.9184280335,4.3024850471,-8.3607003030,-6.2694661756,-5.7837014712,-7.4593311413,,,
0.0625000000,4,-3.5760744012,-4.1387367796,-6.5233194459,-0.6598596072,-1.9641110746,4.4534193706,0.2557330782,1.9132278506,-10.3065300292,4.9347668510,-6.5282323300,-4.7267533943,-5.3193030548,-6.8731785606,,,
0.0664062500,4,-1.0141270058,2.7341061146,-1.5948130740,2.3525177112,-4.5958285037,2.4755353028,0.5755551780,3.3825163928,-10.8282728324,4.8210241261,-1.3923608880,-1.0082482115,-2.6797982676,-3.4841610145,,,
0.0703125000,4,2.9928480192,9.9527436110,4.8801568790,5.1972791554,-5.8467258217,-0.3390515030,1.0897577424,5.5551306569,-5.4339260332,3.7223132713,5.3453129951,3.9921151008,1.3587113044,1.6866017781,,,
0.0742187500,4,6.8826885789,14.7344032893,10.6301687997,6.7735724791,-4.8962070155,-3.0258563464,1.6150487272,7.6765557399,5.0488833049,1.5582230208,10.9578428924,8.6225687537,5.3227367994,6.6927165249,,,
0.0781250000,5,8.7667470773,14.9969063114,13.3420172229,6.3912680991,-1.9102318137,-4.7591616891,1.7564124057,8.2000516715,16.6057291165,-1.3595989557,12.9417889585,11.1120275620,7.6400627553,9.4884437318,,,
0.0820312500,5,7.3888974551,10.3371275523,11.7214228494,4.1573132353,1.9197356589,-5.1456945768,1.1135820629,5.6908362273,23.6632726265,-4.3208376941,10.2410760676,10.3424052752,7.3042098051,8.8877535903,,,
0.0859375000,5,2.8913031082,2.3161584774,6.2188465107,0.9421903958,4.9282510159,-4.2574539005,-0.3955449039,-0.0317708198,21.9605367787,-6.4930698486,3.7984643890,6.3921277750,4.3148377195,5.1599951043,,,
0.0898437500,5,-3.0871023986,-6.1377667999,-1.0342691924,-2.0665881890,5.8121984660,-2.4626334173,-2.3462725053,-7.3672685014,11.0103650567,-7.2882384035,-3.8523012086,0.5802514520,-0.2769234726,-0.0814999354,,,
0.0937500000,6,-8.1016738500,-11.9670367152,-7.1502447474,-3.9414800978,4.2494249145,-0.2301056244,-3.9522186747,-13.5009927172,-5.3533122450,-6.5567957016,-9.7264567322,-5.0303729630,-4.7220717730,-4.6572987969,,,
0.0976562500,6,-10.0553422912,-13.2862617374,-9.8366369258,-4.3760972028,0.9641688849,1.9681191093,-4.4832128233,-15.7813363920,-20.6684600446,-4.5212927367,-11.6805299569,-8.4621849849,-7.2076646609,-6.8475215762,,,
0.1015625000,6,-8.2061569161,-10.1270765932,-8.4494243240,-3.6599317511,-2.7015257344,3.6764972701,-3.6651020247,-13.0681110624,-28.7751022645,-1.5955510767,-9.2572734355,-8.6233759583,-6.5772873102,-6.1182834748,,,
0.1054687500,6,-3.4821385591,-4.2832088308,-4.1743461186,-2.3616406712,-5.3594600984,4.5043673360,-1.7933202476,-6.2597343050,-26.4214089939,1.7119233223,-3.7468166191,-5.7288793082,-2.8826029124,-3.2024825515,,,
0.1093750000,7,2.0518498646,1.6351245222,0.7216455954,-0.9812012362,-5.9769482561,4.2605515641,0.4748841232,2.2284633034,-14.4247069235,4.7803028391,2.4956926096,-1.1562483137,2.5039403949,0.4211933935,,,
0.1132812500,7,6.2391869629,5.4335786276,4.0893295866,0.2085020325,-4.0709930243,3.0981213931,2.4709901937,9.6193944221,2.8280236812,6.8964024238,7.1123536327,3.1894177668,7.3609979199,3.2862986529,,,
0.1171875000,7,7.7891008814,6.2244908543,4.8613675417,1.1038216382,0.1413732426,1.5123316876,3.7852802549,13.8659786207,19.0793141042,7.4486704503,8.6786710150,5.6930815857,9.5426688631,4.5124470090,,,
0.1210937500,7,6.6746061885,4.5741315431,3.3240964856,1.6435065106,5.5649416370,0.1045437265,4.3308816459,14.1903170746,28.4323891014,6.2368567709,7.1158933654,5.6488839061,7.9433454105,3.9810076956,,,
0.1250000000,8,3.8831572553,1.9408368653,0.6936582894,1.7656822484,10.2326601790,-0.7844195765,4.2191627342,11.0292500866,27.4641539935,3.6710786882,3.4850562799,3.4278590731,3.0220834952,2.1778929773,,,
0.1289062500,8,0.7818667703,-0.1981404309,-1.6463407606,1.4623887716,11.8357030375,-1.3002814359,3.5757752686,5.6511720469,16.5610509000,0.6627297522,-0.6228886403,0.1776558238,-3.3790203830,-0.1012693485,,,
0.1328125000,8,-1.5242011652,-1.0467591940,-2.8065844200,0.8314240989,8.8227380869,-1.9203858723,2.4494632520,-0.2973548867,-0.1143591164,-1.7867937481,-3.7609488384,-2.7558253520,-8.8264409509,-2.0449147519,,,
0.1367187500,8,-2.5626904880,-0.7121226592,-2.6693589138,0.0495822872,1.5375404388,-2.9629314644,0.8762640262,-5.2242373289,-16.2109123791,-3.0735663494,-5.1067662345,-4.4026063161,-11.3176437777,-3.0750737052,,,
0.1406250000,9,-2.5044836819,0.0712438489,-1.7327079717,-0.7065993746,-7.4766857564,-4.1419151272,-0.9746451614,-7.9983383641,-25.7943569935,-3.2512266871,-4.6527779029,-4.4927059471,-10.0800118356,-3.0242930811,,,
0.1445312500,9,-1.9046986776,0.4941163029,-0.6828697310,-1.3127366611,-14.5205988804,-4.6152422146,-2.7235112108,-8.2656068336,-25.8344280556,-2.8865021221,-3.0974225684,-3.4187352181,-5.8156502905,-2.1725676540,,,
0.1484375000,9,-1.3692470527,0.1638100830,0.0104866592,-1.6824009007,-16.6710310774,-3.6185631039,-3.8836636917,-6.5380106073,-17.3925634386,-2.5986918826,-1.4444849319,-1.9013541595,-0.3078578625,-1.0830874573,,,
0.1523437500,9,-1.3039911424,-0.7452076301,0.2321708818,-1.7309899098,-13.3205957526,-1.1954313820,-4.1125992304,-3.9572411020,-4.8998195869,-2.6201626060,-0.4449331593,-0.5744834542,4.4105409065,-0.2896838175,,,
0.1562500000,10,-1.7887876070,-1.7220352030,0.0911741946,-1.3886670892,-6.2501668860,1.6755826070,-3.4235736539,-1.7851492747,6.1564382425,-2.7161699881,-0.2163384552,0.2631232338,6.9171183686,-0.0251803452,,,
0.1601562500,10,-2.5750112857,-2.3096479572,-0.2703922687,-0.6683356858,1.6767332416,3.7232271733,-2.1771037206,-0.8287412615,11.9674478583,-2.4825877642,-0.3022584069,0.6362683586,6.8805881636,-0.1646450450,,,
0.1640625000,10,-3.2045419671,-2.3524537135,-0.7296381532,0.2799439527,8.0968752483,4.2422660850,-0.8516199643,-1.0574537995,12.1088637494,-1.7089973973,-0.0884054352,0.7362510527,4.9897129149,-0.3847274948,,,
0.1679687500,10,-3.2064149814,-1.9525556411,-1.0795422217,1.1942694050,11.9208589469,3.4665950135,0.2245184770,-1.6065506729,9.2825406262,-0.4878607857,0.7513773034,0.7981419275,2.4579495536,-0.3858004099,,,
0.1718750000,11,-2.2912862010,-1.2375881604,-0.9476584898,1.8036724800,13.0688034049,2.2233332067,0.9757376719,-1.2263289716,7.2457285853,0.9633163863,2.0632482185,1.0702436968,0.4069901837,-0.0203947805,,,
0.1757812500,11,-0.4808991283,-0.1879501244,0.0624465225,1.9434533135,11.7875757544,1.2389938209,1.4679806262,0.9636527050,8.1709638619,2.5100989318,3.3347264881,1.7720560275,-0.5767325476,0.7078431877,,,
0.1796875000,11,1.8561699408,1.2992312867,2.0148586004,1.6174085240,8.3080060498,0.6995558151,1.7220586242,4.7797468169,11.1194746132,4.0623740176,3.9838342817,2.9334042589,-0.5583714157,1.6963688192,,,
0.1835937500,11,4.0806164986,3.1522305186,4.3436120020,0.9883511403,3.0539208496,0.3609453396,1.6427003841,8.7912256263,12.7023175817,5.2952856569,3.6193920948,4.1887849373,-0.0657607995,2.7577417902,,,
0.1875000000,12,5.4797935624,4.9068630105,5.9399331683,0.3118303810,-2.9989613209,-0.0201815394,1.1346717239,10.8939887388,9.5753074899,5.4690060337,2.1674875616,4.7645220545,0.2550941972,3.5870318638,,,
0.1914062500,12,5.5481615383,5.7709128904,5.6954078967,-0.1710857180,-8.3377140019,-0.4170076269,0.2924485517,9.4290106922,1.0644988593,3.7243902779,-0.1138077746,3.8257427208,-0.0396696939,3.7643607464,,,
0.1953125000,12,4.2423873488,5.0164293190,3.2026502815,-0.3548665845,-11.4371023904,-0.6703679566,-0.5389985433,4.2242975954,-10.0083316271,-0.1565626424,-2.6591904094,1.0626037150,-1.0112079384,2.8882513987,,,
0.1992187500,12,2.0690176540,2.4781024576,-0.8565280557,-0.3371909212,-11.4549372576,-0.8211619746,-0.9333865317,-3.0947184402,-18.9925710487,-5.0791795716,-4.6548875255,-2.8665626758,-2.3197605404,0.8413847423,,,
0.2031250000,13,-0.0910458271,-1.1937315217,-4.9325067221,-0.3554550988,-8.6061137707,-1.2123913238,-0.6666139086,-9.7690121138,-22.3741778501,-8.7758953620,-5.2258544400,-6.4189911491,-3.3499266496,-1.9613532002,,,
0.2070312500,13,-1.3926900049,-4.7476400571,-7.3503609354,-0.5980616132,-3.9828726059,-2.1759915567,0.1226067250,-13.1953183645,-19.8089878786,-8.9804598817,-3.8213161767,-7.8674535594,-3.4700028847,-4.5737783060,,,
0.2109375000,13,-1.4895086661,-6.9237810186,-7.1616407082,-1.0262544652,0.9983695957,-3.5680152432,1.0278169696,-12.1292229458,-13.7459984477,-4.9978502758,-0.6709625810,-6.2878651632,-2.3866179778,-5.8918101642,,,
0.2148437500,13,-0.7746740393,-7.0716803975,-4.6276975148,-1.3709917602,5.1280309046,-4.6280370047,1.6336850251,-7.1863898695,-7.1455618343,1.4780574034,3.0249273934,-2.2381719324,-0.4386981529,-5.2585836333,,,
0.2187500000,14,-0.1920075752,-5.4219345825,-1.0637120037,-1.3333430888,7.6428860377,-4.3917751931,1.7248885140,-0.4611039375,-1.3267371356,7.0813278527,5.4778115780,2.3697776366,1.4206127754,-2.9326317141,,,
0.2226562500,14,-0.6558698678,-2.8676090772,1.8728795456,-0.8343939931,8.2070416675,-2.3988987351,1.3152828693,5.4687483377,4.2762477536,8.7439351815,5.2184513795,5.2402691847,2.0949699134,-0.0555504571,,,
0.2265625000,14,-2.4043187797,-0.4114444523,3.0562082589,-0.1028534423,6.8463302529,0.8405172145,0.5506458671,8.6485402254,10.4628012500,5.6667216749,2.0388092366,4.9835357038,1.0776712580,1.9619227383,,,
0.2304687500,14,-4.7111428577,1.3764828287,2.4428753173,0.4884730023,3.9666260742,3.9985055792,-0.3730093319,8.4854196187,16.4483617239,-0.0776555277,-2.6777835918,1.9406220876,-1.0451883020,2.3088296426,,,
0.2343750000,15,-6.1932798422,2.5632759856,0.9949380767,0.7169892727,0.3790446551,5.6453188345,-1.2148023592,5.8349884889,19.7136650584,-4.8054931044,-6.5676645691,-1.9958289956,-2.7752909447,1.3184247866,,,
0.2382812500,15,-5.5867672587,3.6049640308,0.0257462231,0.6863106842,-2.8428398612,5.0951176882,-1.6930369041,2.4310070249,17.8047211796,-5.5654085580,-7.5623598200,-4.4862846822,-2.5879317779,0.2475472773,,,
0.2421875000,15,-2.5553615421,4.8249632665,0.3588345318,0.7101635573,-4.7317630605,2.8493569375,-1.5837471114,-0.0581075243,10.5912499038,-2.0081335666,-5.0723247233,-4.1057678056,0.0026173900,0.3670848120,,,
0.2460937500,15,1.9693374353,5.9950964479,1.8167818290,0.9838421186,-4.8548754305,0.3363528014,-0.8870025006,-0.8641616854,1.0302814442,3.4695935449,-0.3197289450,-1.1217115144,3.9562601489,1.9875611146,,,
0.2500000000,16,6.1730626625,6.3518318253,3.3705281418,1.3443675100,-3.5146448781,-0.9197728594,0.0874583721,-0.3952734310,-6.3455103019,7.3687223191,4.4194933459,2.7766910079,7.2291368304,4.1598611252,,,
0.2539062500,16,8.2846286073,5.0924451104,3.8547338922,1.3708367977,-1.5528636709,-0.1955661041,0.8366337040,0.1855096470,-8.2255675653,7.3534666375,7.1730212003,5.5714257537,8.0204803856,5.3120213052,,,
0.2578125000,16,7.4953434199,2.0313834119,2.7544140105,0.7626423819,0.1309447274,2.0200803470,0.9414380385,-0.2169750785,-4.6561546565,3.5961160148,7.3075235845,6.0719793401,5.8845560234,4.3572720329,,,
0.2617187500,16,4.3152858392,-2.0702492309,0.5057207180,-0.3444558040,1.0242534261,4.3241970675,0.3178166854,-1.9508255170,0.9415230539,-1.6177641092,5.5596159414,4.3926290218,1.9112884328,1.4370020246,,,
0.2656250000,17,0.1847847696,-5.7916446333,-1.8797112951,-1.4196806632,1.1318991074,5.1796265039,-0.7388611021,-4.4821865687,3.8629851905,-5.5879960010,3.1599000874,1.5598737037,-2.1070397479,-2.2268921059,,,
0.2695312500,17,-3.3508702689,-7.8027943840,-3.5316787114,-1.9079331943,0.7718705532,3.6911528256,-1.7435912782,-6.7830903711,0.9860817378,-6.9160351748,0.8518153856,-1.2959541475,-4.8176724372,-5.1700677047,,,
0.2734375000,17,-5.3556960774,-7.5783646159,-4.1972961702,-1.6207941888,0.2579073435,-0.0248750809,-2.2992309852,-7.8752443810,-7.2905186438,-6.0830849518,-1.3735826308,-3.4938938755,-5.8773372824,-6.5135764332,,,
0.2773437500,17,-5.7165657182,-5.5958463278,-4.1420692604,-0.8435147410,-0.2718242925,-4.9682177258,-2.2594759316,-7.1663176332,-17.0721217153,-4.6583767099,-3.7006334100,-4.7823178310,-5.6529647827,-6.2078913113,,,
0.2812500000,18,-4.8508766348,-2.9067157074,-3.6559767202,-0.0927720483,-0.7814553060,-9.6772015733,-1.6856170241,-4.5061028509,-22.8698622923,-3.8825576690,-5.7331367291,-4.9895059219,-4.5376408807,-4.6826439665,,,
0.2851562500,18,-3.2244644005,-0.4104518439,-2.6636492902,0.2809248856,-1.1371648218,-12.6694800155,-0.6899426405,-0.1510103690,-20.3973527792,-3.7121475691,-6.3904740874,-3.8471287897,-2.6194298975,-2.3577644858,,,
0.2890625000,18,-1.0679552123,1.6336009899,-0.8147243032,0.3413261672,-1.0163097548,-12.7780767511,0.6493025806,5.1858022628,-8.9481206785,-2.9677554458,-4.6821732614,-1.2443556438,0.0255066477,0.5221909274,,,
0.2929687500,18,1.5167296524,3.5021229504,1.9998639636,0.4634512202,-0.0884047670,-9.4495854695,2.2057316625,10.2544018714,7.7724170347,-0.4083118029,-0.7539721638,2.3137972592,2.8282436787,3.6509384887,,,
0.2968750000,19,4.1994778419,5.4173453919,5.1489234631,0.9468408492,1.6153166182,-3.0685670073,3.6531212647,13.4120576363,22.9272874558,4.0656878284,3.7295001685,5.5400759773,4.6521835552,6.3458088474,,,
0.3007812500,19,6.1916746070,6.9877788617,7.2725985839,1.6600956552,3.4649811905,4.8441961544,4.4559717874,13.1822964997,29.6476386172,8.9435508373,6.3351777284,6.8091662835,4.3718735051,7.5766286735,,,
0.3046875000,19,6.4643083901,7.2162974742,6.9536683149,2.0387593791,4.4414116083,11.8847249471,4.1208708448,9.0841959329,24.6507632483,11.7581037381,5.3347023666,5.0533259150,1.6952094239,6.4751505678,,,
0.3085937500,19,4.3860406600,5.1728173367,3.6838324689,1.4833242006,3.7783686194,15.6359732952,2.5793844284,2.2216647100,10.4100894127,10.5287419153,0.8961359412,0.5471456741,-2.4438995024,3.0160467827,,,
0.3125000000,20,0.3578224749,0.8606042931,-1.5494991925,-0.1348284577,1.6018090459,14.8374062838,0.3838317820,-4.9202757512,-5.7195205405,5.1207406903,-4.8573100851,-4.9918236237,-6.2734917392,-1.6820119276,,,
0.3164062500,20,-4.0855984193,-4.4165444064,-6.5602354844,-2.2589426532,-0.9937117445,10.1219848324,-1.5260177727,-9.5843737369,-15.3922030322,-2.3701206935,-8.9961533471,-9.1502597097,-8.1000854459,-5.7799719076,,,
0.3203125000,20,-6.9265553885,-8.5518654154,-9.0652213982,-3.9069700465,-2.6161827437,3.7100912653,-2.3930849324,-10.1953487128,-14.1021359178,-8.5497066513,-9.4021291360,-10.0267696519,-7.1291338124,-7.6734555516,,,
0.3242187500,20,-6.7613831086,-9.7403089820,-7.9338100611,-4.2358276314,-2.5630019392,-1.8499573496,-2.1424750618,-7.2334839384,-3.9313111869,-10.5182992375,-5.8478793262,-7.2003195007,-3.6996312107,-6.8529031963,,,
0.3281250000,21,-3.6581314915,-7.4779754639,-3.7909113832,-3.0197978382,-1.3531158448,-5.0553047925,-1.4087058501,-2.9025361742,7.7376022101,-7.4965688923,0.0467634127,-1.8910373575,1.0662507163,-4.0811359970,,,
0.3320312500,21,0.8231929126,-2.8096203089,1.3951791942,-0.7358157016,-0.3417269658,-5.9991074496,-1.0496936087,0.2247966941,12.8681755207,-1.2907469047,5.8154178604,3.7496664312,5.8172809989,-0.8028862935,,,
0.3359375000,21,4.4727099349,2.2698991812,5.4135433080,1.7325117309,-0.7258538048,-5.8564275293,-1.5239953952,0.6907918796,7.7041864476,4.6940141157,9.4004495739,7.7280430880,9.4037458978,1.7326688973,,,
0.3398437500,21,5.6024471508,5.8376319644,6.8997546794,3.5367049276,-2.7002024422,-5.8348480035,-2.5828864876,-1.1489093221,-5.1440456651,7.2943806606,9.9660258381,9.0396699803,11.1010585972,3.0468727586,,,
0.3437500000,22,3.9077585848,6.9442123827,5.8743167406,4.2327964548,-5.2765484394,-6.3333566801,-3.4378342903,-3.5183401112,-18.4050001083,5.2643639183,7.9828273917,7.9163560418,10.6588094424,3.4671702436,,,
0.3476562500,22,0.5732751488,5.9343794493,3.5185764622,3.9145203295,-6.8153745301,-6.7953313355,-3.2595012010,-4.3735352369,-24.3904659093,-0.0925944006,4.7227460030,5.4811311438,8.2494842806,3.7049106141,,,
0.3515625000,22,-2.4519134227,4.0003660226,1.3338090527,3.0348352542,-5.9633734760,-6.2567008771,-1.7117517559,-2.6378788286,-19.3857470696,-5.6879461372,1.5250457062,3.0183960357,4.3912521175,4.2350394177,,,
0.3554687500,22,-3.5730712856,2.3187587195,0.2327476541,2.0566539563,-2.4609923831,-4.1442140644,0.8001257570,1.1889296412,-5.6763366710,-8.3605364976,-0.7788717992,1.2877213487,-0.1359634452,4.8993853802,,,
0.3593750000,23,-2.3892771773,1.3739863883,0.1331238863,1.1869899835,2.6540335329,-0.7619926816,3.3149872879,5.3559927792,9.8867412359,-6.5391363643,-2.0553034211,0.2678969297,-4.4252824275,5.0109723139,,,
0.3632812500,23,0.1671900608,0.7895327024,0.1814898405,0.3294076247,7.5536993242,2.8580090560,4.8020948268,7.8239781457,19.6893595736,-1.0124666514,-2.6956503572,-0.6365889718,-7.6817966794,3.8133765801,,,
0.3671875000,23,2.4215875766,-0.2979873020,-0.6060788515,-0.7551829771,10.5132287629,5.6025120415,4.6736889823,7.3230087613,19.3367177842,5.5061121955,-3.2477628661,-2.1143661361,-9.4764069549,0.9865096436,,,
0.3710937500,23,2.9607998507,-2.4959809259,-2.6267365307,-2.1802577824,10.6626282491,6.9095226400,3.0728908826,4.0367865693,9.8431568727,9.7818947217,-4.0387249408,-4.4166490011,-9.8133902881,-3.0235124152,,,
0.3750000000,24,1.4595154303,-5.5410573784,-5.3213385500,-3.7433522925,8.2462877292,6.9662810432,0.7906381391,-0.4452137813,-3.0830989260,9.7045752593,-4.9696587851,-7.0757996625,-8.9709678555,-7.0296524421,,,
0.3789062500,24,-1.1694162773,-8.2854307693,-7.4122811363,-4.9593350361,4.3525725190,6.4242764028,-1.1467250224,-3.9280630548,-12.2377245596,5.2908342654,-5.5852675963,-9.0793062417,-7.2753564868,-9.5397960831,,,
0.3828125000,24,-3.3450782965,-9.2677259786,-7.6102661617,-5.2885257791,0.2726621351,5.8428336731,-1.9929461393,-4.7164593775,-12.7204253258,-1.4784137320,-5.3660586980,-9.3903568898,-4.9658614684,-9.4321821328,,,
0.3867187500,24,-3.7629722855,-7.5079250345,-5.3862832277,-4.4221569390,-3.1542623951,5.2154049632,-1.6270305729,-2.4653579497,-4.3288395731,-7.8154005610,-4.0806266741,-7.5125194979,-2.2184816502,-6.5659000839,,,
0.3906250000,25,-2.1922859620,-3.1301480247,-1.3751557182,-2.4856946044,-5.7716105867,3.9357204970,-0.5548784093,1.5896978174,8.4872103639,-11.5227153528,-2.0037742605,-3.8076793780,0.7142416884,-2.0021995928,,,
0.3945312500,25,0.3666336608,2.5270089824,2.8697991139,-0.0432958260,-7.7755786838,1.2847599750,0.4208279894,5.1653746400,18.9567436234,-11.7919464996,0.1620063996,0.6214856464,3.4117498273,2.3808113124,,,
0.3984375000,25,2.3208983979,7.4472646874,5.6991241975,2.1395136369,-9.1562315397,-2.8739946329,0.6695944787,6.0691340479,21.4239839270,-9.0540189592,1.6812812021,4.4601594705,5.4003158650,4.7936267108,,,
0.4023437500,25,2.5403168034,9.8917077977,6.2977868664,3.4705434371,-9.4229193335,-7.6856211711,0.0769498828,3.4322737787,14.1853228965,-4.2384843720,2.2845030923,6.8344704956,6.4421192144,4.5116358260,,,
0.4062500000,26,1.1096418938,9.2511928614,5.1228515018,3.8179835201,-7.8688337837,-11.5023513524,-0.9206810963,-1.6428431838,0.3170432751,1.8271146574,2.4099782624,7.6895097813,6.7531461204,2.3327936378,,,
0.4101562500,26,-0.7669573546,6.2867533843,3.5327466099,3.5139843962,-4.1749795186,-12.6175956377,-1.6187677622,-6.4996123156,-13.9069036352,8.4008645861,2.9356515874,7.6473845549,6.8868084476,0.1616121233,,,
0.4140625000,26,-1.6664171427,2.6024739649,2.8268024773,3.0526430797,1.1164713153,-10.1241723081,-1.4836351464,-8.3435991531,-22.1760120157,14.3569702990,4.4836882925,7.4265495391,7.2502391538,-0.1351664743,,,
0.4179687500,26,-1.0149356667,-0.3162513157,3.3321611698,2.6778478433,6.6202003244,-4.4395227536,-0.4976519526,-5.9486357827,-21.2372412043,17.9285385657,6.7432654006,7.2007432056,7.5732041811,2.0326004242,,,
0.4218750000,27,0.5202436618,-1.8677288599,4.1847225290,2.1964757634,10.6175886386,2.7163145510,0.8072616763,-0.5602524422,-12.3304918699,17.2697990886,8.4002489406,6.3957057693,6.8799092653,5.4763259325,,,
0.4257812500,27,1.6630962615,-2.4155167830,3.9894065235,1.2222117611,11.7735087655,8.8848523549,1.6718498234,4.7784508118,-0.2707873083,11.6813019890,7.9189666435,4.1816475040,4.2181603136,7.9344906358,,,
0.4296875000,27,1.6188143624,-2.7211263542,1.8866152089,-0.3407952324,9.7142217141,11.8457340094,1.5854404198,7.1537494403,9.2208311766,2.4900651465,4.6908634042,0.3346094132,-0.3642879211,7.5803485680,,,
0.4335937500,27,0.6750240161,-3.2290201353,-1.7702338589,-2.0259388567,5.1983687970,10.6243946688,0.5937108132,5.5847109976,12.3654646871,-7.3124836785,-0.3548741186,-4.2615561956,-5.4884931933,4.2343253304,,,
0.4375000000,28,-0.1273244534,-3.7486518070,-5.6100644911,-3.0286364924,-0.2074286076,5.9722436897,-0.7562089529,1.3967329583,8.8297680335,-14.5339056192,-5.2103752801,-7.9613926945,-9.1541604224,-0.6068531920,,,
0.4414062500,28,0.0914851469,-3.7254778590,-8.1304584596,-2.7846254092,-4.7909465994,0.0039697885,-1.7687094004,-2.9735890023,1.3392429926,-17.3321318154,-8.0180493953,-9.3622771506,-10.0151028776,-4.8705406556,,,
0.4453125000,28,1.3009591281,-2.8344704451,-8.6127192969,-1.4491777068,-7.3697168598,-4.8156429898,-2.0018972274,-5.6927904006,-6.0589270936,-15.8604891700,-8.1839690435,-8.2361819650,-8.2687541835,-7.2409144354,,,
0.4492187500,28,2.5312233431,-1.3855813915,-7.4325329866,0.1160889138,-7.6633402004,-6.7733748352,-1.4696305352,-6.4615546950,-10.0095972261,-11.7504095763,-6.5910759765,-5.6816759449,-5.4844644066,-7.7411548114,,,
0.4531250000,29,2.5549605771,-0.1727781632,-5.5995330645,0.8770463316,-6.2105138839,-5.5424157099,-0.5517075697,-6.1221057397,-9.1758472036,-6.9543674631,-4.8053237509,-3.3539422017,-3.4856112966,-7.2486822303,,,
0.4570312500,29,0.7885072063,0.1610667663,-3.9100522001,0.3300283444,-3.9150836698,-2.1234229882,0.2854839793,-5.4797168220,-4.4237871750,-2.7450636660,-3.8940741931,-2.3083476136,-3.0929260421,-6.4725214367,,,
0.4609375000,29,-2.2060005216,-0.2736543774,-2.3706757006,-1.1221160004,-1.5291200943,1.7478185602,0.7584890338,-4.4375783480,1.9747949527,0.6022593450,-3.7339669341,-2.3009486417,-3.6312065332,-5.3079611026,,,
0.4648437500,29,-4.9788997283,-0.6218066094,-0.3488178560,-2.4228778557,0.5701421386,4.3697700996,0.8718559848,-2.1895182710,7.5345762194,3.4318237387,-3.2907134939,-2.0793301632,-3.5330166911,-3.1153982166,,,
0.4687500000,30,-6.0418669284,0.0641887936,2.7067685234,-2.5670730932,2.2569130404,4.7212844653,0.8328404042,1.8014997605,10.5429533299,6.0572260325,-1.5645646536,-0.4146328852,-1.5437699866,0.4202670928,,,
0.4726562500,30,-4.7066323737,2.1199948406,6.6222307103,-1.2171977667,3.4780647154,2.8068003632,0.8676100512,7.0141015575,10.5240436081,8.3513584467,1.5923991976,2.9525611011,2.3685666293,4.7236003578,,,
0.4765625000,30,-1.4203081067,5.0097807789,10.3962065418,1.1384189584,4.1835772740,-0.4233601799,1.0696028401,11.8843723025,8.1139677469,9.7861993369,5.3086580452,7.0646090535,6.9450939281,8.4780665246,,,
0.4804687500,30,2.4551474633,7.5009808153,12.5912828226,3.4409309413,4.2581006169,-3.5649654702,1.3604610412,14.4728873884,4.4916181447,9.7801384602,8.1384341845,10.2024273759,10.3284296763,10.2203580885,,,
0.4843750000,31,5.2430807736,8.1452198680,11.9808092441,4.5500171723,3.4748892670,-5.4108343364,1.5532536548,13.3655503086,0.7521996488,8.0929253806,8.8232472797,10.7452664223,11.0639091325,9.0205291288,,,
0.4882812500,31,5.7119872795,5.9894751667,8.2118305351,3.8018904743,1.6536044843,-5.4236046800,1.4556438292,8.4304223199,-2.3962321419,5.0457895470,6.9946832887,8.0511968872,8.8598165788,5.0172355466,,,
0.4921875000,31,3.6532061494,1.1945893012,2.1332245940,1.3757636252,-1.0497443747,-3.8414938870,0.9660234482,1.0428881796,-4.5799804900,1.4396087582,3.4183165539,2.8798992163,4.6963738052,-0.4864615475,,,
0.4960937500,31,-0.0438597158,-4.8641030317,-4.4709573287,-1.7626323775,-3.9996149210,-1.4401433173,0.1323128487,-6.4154249317,-5.5930127985,-1.7956565316,-0.3966575393,-2.9346702528,0.2429784489,-5.5324498645,,,
0.5000000000,32,-3.8207106647,-10.0846637396,-9.6139686087,-4.2989830153,-6.1879772119,0.8876097376,-0.8656549867,-11.5596001783,-5.3614379373,-4.0329463987,-3.0175335966,-7.3671865929,-3.0820381356,-8.3837846272,,,
0.5039062500,32,-6.1163248704,-12.4747122987,-11.9214013623,-5.1541568846,-6.5689048983,2.5267542545,-1.8107635214,-13.0138278718,-4.1300304713,-5.1911694836,-3.8639045433,-9.1226211117,-4.8344741853,-8.2900135352,,,
0.5078125000,32,-5.9656967867,-11.0100717622,-11.1133638286,-3.9704687387,-4.5977812788,3.3195926917,-2.5387063055,-10.9356151540,-2.6342836303,-5.5671471465,-3.3904707176,-8.0808625564,-5.4717493727,-5.7061026306,,,
0.5117187500,32,-3.3015124807,-6.1190015308,-7.8811887134,-1.2776341164,-0.7066148811,3.4459623117,-2.9397327791,-6.7590329156,-1.8153576966,-5.3512221691,-2.4815992305,-5.0483196744,-5.4895795347,-1.8327902409,,,
0.5156250000,33,1.0920148909,0.4964464277,-3.3161686674,1.7806320275,3.7587815264,3.1337181065,-2.8947264909,-2.3093891201,-2.0504297652,-4.3209528994,-1.6055228049,-1.1259105653,-4.6682103474,2.1340545458,,,
0.5195312500,33,5.7960037256,6.5738481398,1.5242569502,4.0036392567,7.2125041706,2.5089640113,-2.2452747222,1.1102429749,-2.5808513202,-2.2063357599,-0.6370785831,2.6920812200,-2.4624681586,5.3817022261,,,
0.5234375000,33,9.0473680612,10.1402268284,5.5740430453,4.6387793173,8.5694880040,1.7323565126,-0.8816322154,3.0773156967,-1.9270951464,0.5034901316,0.4856326259,5.4705567354,0.7175710922,7.2925301436,,,
0.5273437500,33,9.3405092618,10.2398115719,7.7141623730,3.6401980508,7.5428602666,1.1111620699,1.0482231488,3.7760015097,0.7641564816,2.4207741903,1.2898349397,6.3438538421,3.1118599684,7.2845229520,,,
0.5312500000,34,6.2982607640,7.3146470690,7.2419732664,1.6445979789,4.5403174871,0.8756395131,2.9856205397,3.5024613226,4.6132882255,2.3385135576,1.2405596800,4.9598100317,3.0415890824,5.1534102849,,,
0.5351562500,34,1.0740658346,2.9167140045,4.4469643167,-0.3666547256,0.4434049752,0.8671560218,4.1236673499,2.4188501356,7.3528945372,0.4318425489,0.4432506411,1.8793347005,0.6135120795,1.4848551700,,,
0.5390625000,34,-4.2495719534,-1.1803436034,0.5720916016,-1.6025132987,-3.6483962211,0.5650598623,3.8670328817,0.6844645963,6.9641157358,-1.7452480187,-0.4088828280,-1.6452843103,-2.2240485991,-2.4895646359,,,
0.5429687500,34,-7.8391546357,-3.8452222372,-2.8690307405,-1.8582621528,-6.7358520727,-0.5301346143,2.2401783369,-1.2682779180,3.2286991469,-2.4174063806,-0.7316807371,-4.3572432094,-3.2517430304,-5.5323409669,,,
0.5468750000,35,-8.9556463034,-4.8500273487,-4.8369947715,-1.5032772148,-8.1939525828,-2.4837121627,-0.0724083017,-2.6300481827,-1.9953126683,-0.8307398831,-0.5719398502,-5.5537188629,-1.6831888268,-6.9661827315,,,
0.5507812500,35,-7.9428988622,-4.5188263539,-5.0502082342,-1.1038877923,-7.8337233337,-4.7846588792,-2.0750391980,-2.4569266491,-5.8985553890,2.3337342165,-0.4297674470,-5.1592675480,1.3670637325,-6.7499273132,,,
0.5546875000,35,-5.5874555993,-3.2406036958,-3.7787863786,-0.9843893220,-5.7512435020,-6.5332166111,-2.9655214937,-0.2029656812,-6.4298238794,5.4791235445,-0.6168888796,-3.4563881431,3.8632503094,-5.1671048564,,,
0.5585937500,35,-2.5192089558,-1.3120806976,-1.5166318584,-1.0450683992,-2.1815477540,-6.8139681919,-2.5043610959,3.7359271951,-3.4951906463,6.9970645729,-0.8462807721,-0.8582771515,4.3534058376,-2.5578927155,,,
0.5625000000,36,0.8808768762,0.8631129822,1.1486866957,-0.9382911128,2.4214984875,-5.0756780880,-1.0750190155,7.8588602121,1.0516418882,5.9707197692,-0.4942150280,2.0856185450,2.8302472973,0.6383090718,,,
0.5664062500,36,4.1779541912,2.6011300627,3.5025003145,-0.4240331081,7.1262698387,-1.4015834483,0.5592108932,10.0588459413,4.5771497925,2.4602682177,0.7068944986,4.6158183142,0.4538850245,3.6929654162,,,
0.5703125000,36,6.6708094801,3.1470030720,4.7772790692,0.4006854549,10.4329505896,3.4024246194,1.6549667737,8.6916354574,5.2613514993,-2.5386411194,2.2213661518,5.8982814742,-1.4448441966,5.6348749322,,,
0.5742187500,36,7.5965631609,2.1921225138,4.4706627343,1.1744402915,10.7002717848,7.9631351642,1.8364775293,3.6570495099,3.1330859347,-7.3636954805,2.9699263593,5.4091874294,-2.2422165373,5.6910983093,,,
0.5781250000,37,6.6014307618,0.2263137231,2.6993762493,1.5483107857,7.0394274202,10.7487718935,1.2166023425,-3.2582988652,-0.0932458057,-10.2040151608,2.1199944035,3.2908746183,-2.2138696078,3.8360769814,,,
0.5820312500,37,4.0325223595,-1.6932732913,0.2266655540,1.4040131269,0.1268227001,10.6200140209,0.2440706314,-9.1721682709,-2.2574001106,-9.8451101082,-0.2388238844,0.3439754777,-2.0785500171,0.9548896151,,,
0.5859375000,37,0.7720392205,-2.6696475085,-1.9579268622,0.8465341346,-7.7313414952,7.3055356145,-0.6096865505,-11.6650175239,-2.2372019145,-6.3550241427,-3.0804269831,-2.3982803813,-2.3561759935,-1.6095964628,,,
0.5898437500,37,-2.2397266089,-2.6083068791,-3.2100650137,0.0479742664,-13.4997594872,1.5947665067,-1.1162904991,-10.1302885498,-0.6700995648,-1.2237520411,-5.0809075940,-4.2055636679,-2.9981507812,-2.8418763506,,,
0.5937500000,38,-4.3940797994,-2.1965686435,-3.4934901662,-0.8551648363,-14.8139965260,-4.8390751503,-1.3405477595,-6.0095696331,0.5843969322,3.3422458691,-5.3903869902,-4.8907414900,-3.4448367923,-2.5928360389,,,
0.5976562500,38,-5.4576336641,-2.1905521545,-3.1487591047,-1.7180196229,-11.0637012303,-9.9390264464,-1.4629491201,-1.7520937537,-0.1255233438,5.6852594092,-3.9821227357,-4.6194266884,-2.9784465632,-1.4909546666,,,
0.6015625000,38,-5.3633467667,-2.6077734957,-2.4324344001,-2.2957636702,-3.5904275733,-11.9516599556,-1.5334304334,0.7818199342,-2.9121337273,5.6956365000,-1.4433147773,-3.5433234568,-1.1489929917,-0.3552526682,,,
0.6054687500,38,-4.0559624573,-2.5588659422,-1.2851180176,-2.2628834369,4.9791145002,-10.1042517656,-1.3712550892,1.3846402334,-6.0581717574,4.7581546174,1.4763937989,-1.6552555580,1.9040369884,0.3826826579,,,
0.6093750000,39,-1.6002036944,-0.9444502252,0.4504134899,-1.3862582869,11.7966605184,-5.0269697630,-0.7108172956,1.3412755087,-7.0263944110,4.5849481768,4.1556903806,0.9793622447,5.3605169473,0.8004151507,,,
0.6132812500,39,1.5400644611,2.4885438665,2.5815622250,0.2612313485,14.7455668321,1.3255636124,0.5108241181,2.2244988774,-4.1539495261,5.7688461652,6.1062985790,3.8607905225,7.9430268914,1.1256656424,,,
0.6171875000,39,4.3758310011,6.5801429755,4.3544036515,2.2172416415,13.0257716095,6.3810642993,1.9630806583,4.5508529311,2.0639002032,7.1941367640,6.8785625380,5.9890697230,8.4341048568,1.2952725752,,,
0.6210937500,39,5.6916080999,9.2072449249,4.7699016985,3.7765518920,7.3481572540,8.1186012787,3.0168047736,7.2688672666,8.9653861516,6.8298772349,6.1084638256,6.2988614565,6.2917364335,0.8913336687,,,
0.6250000000,40,4.7125550728,8.5461835461,3.2665568493,4.3193490803,-0.2280558847,6.1825500584,3.1035150776,8.4183853611,13.0309493773,3.3541953134,3.7348835748,4.3502031411,2.0282726534,-0.4491533300,,,
0.6289062500,40,1.7119252582,4.3378896163,0.2444070728,3.6233836152,-6.8763891082,2.2191318543,2.0962644094,6.4686823056,11.7257678190,-2.6416583558,0.1909779948,0.7426524274,-2.9254582057,-2.5177845589,,,
0.6328125000,40,-1.9646733634,-1.7312602138,-3.0413745338,1.9381653941,-10.0934681964,-1.0964048000,0.4159650950,1.4531565315,4.9014994957,-8.8573832127,-3.6212632309,-3.1133167597,-6.8422075651,-4.4096856279,,,
0.6367187500,40,-4.5926280777,-6.8814868524,-5.1819755794,-0.2037973047,-8.9746304802,-1.9259283986,-1.2291081157,-4.7988440418,-4.9004445264,-12.7364481516,-6.5930155046,-5.7216124957,-8.4483621578,-4.9649945558,,,
0.6406250000,41,-5.0207614960,-8.8149058814,-5.3665692201,-2.2363306213,-4.7839864026,-0.5576271129,-2.2537316554,-9.5030454407,-13.4542208732,-12.9638438535,-7.7891855003,-6.1991695678,-7.3914275098,-3.4762637596,,,
0.6445312500,41,-3.2346346820,-6.9690128915,-3.6626945606,-3.6940949756,-0.1722032175,1.0278788495,-2.4440445435,-10.3559926078,-16.7503326238,-9.9231903662,-6.7750493600,-4.5299441204,-4.2407706522,-0.1549424319,,,
0.6484375000,41,-0.2299583290,-2.6630295278,-0.7731837907,-4.2490390443,2.5421902920,0.9273045308,-1.9276800413,-6.7350387161,-12.8594834817,-5.0515396147,-3.7600190612,-1.3676653783,-0.1272138176,3.9423476488,,,
0.6523437500,41,2.6205742478,1.8292160653,2.3949340319,-3.7548581750,2.7967475262,-1.0746959116,-0.9914094817,-0.0359296100,-2.8727498604,0.1547166629,0.4536878800,2.3212507765,3.7113509421,7.4292480326,,,
0.6562500000,42,4.2545757739,4.5569117515,5.0037076279,-2.3417129962,1.8624771189,-3.3436200413,0.0653550672,6.9618091666,9.4645110629,4.7104993451,4.6585761700,5.5024256407,6.2520928502,9.1830664362,,,
0.6601562500,42,4.2664317527,4.7194273706,6.3265546490,-0.4877780693,1.5545926962,-3.7688834232,0.9686738582,11.3362030602,19.2184625792,8.0817332382,7.5232776229,7.1732892682,6.8251623565,8.6802372991,,,
0.6640625000,42,2.8294454397,2.7192469398,5.7640153283,1.0683160841,2.6225898772,-1.5478756312,1.4661039886,11.2719635045,22.2270456073,9.8597520942,7.9661814785,6.5042404624,5.1796638838,6.0002451939,,,
0.6679687500,42,0.4321421183,-0.3129054401,3.0717980971,1.6444634291,4.1036384640,2.0324584733,1.3772265203,6.7839486334,16.8336457768,9.6691143233,5.5980916323,3.1954493045,1.6135522583,1.6887008101,,,
0.6718750000,43,-2.2783201510,-3.0652824335,-1.2307130564,1.0433687798,4.1391296969,4.4302495406,0.7108602045,-0.3386865438,4.7499048911,7.4657607525,1.0841345480,-2.0565043523,-2.8582420660,-3.3097887800,,,
0.6757812500,43,-4.5057076991,-4.4280149785,-5.6590197927,-0.2051874585,1.5789966003,3.6918812584,-0.2477104983,-7.2986369946,-9.4039399762,3.9048725361,-3.8628934536,-7.4106479572,-6.5500343985,-7.6814329530,,,
0.6796875000,43,-5.3957590511,-3.7799576932,-8.2054854427,-1.0603289308,-2.9240906433,-0.0391428938,-1.0064563591,-11.4606100519,-19.9364208019,0.2866014350,-7.0883934561,-10.4705133397,-7.6533119022,-9.9913103447,,,
0.6835937500,43,-4.3899884098,-1.2719062606,-7.4138528983,-0.6173380401,-7.2050272598,-4.4468787858,-1.1249985298,-11.4787155945,-22.6862269373,-2.0921383539,-7.0733726200,-9.5259844736,-5.2381697694,-9.2907546503,,,
0.6875000000,44,-1.6830286692,2.0439264443,-3.4343992920,1.2150965117,-9.0239616567,-6.4876054629,-0.5210974585,-7.8842186944,-17.1220497076,-2.7892977028,-3.8960730264,-4.7122538229,-0.1289715369,-5.8032656936,,,
0.6914062500,44,1.6341138013,4.5307713730,1.8106030317,3.5196443592,-7.5273236809,-4.3865337244,0.4186799139,-2.7676327686,-6.6333780599,-2.5749069309,0.6434715806,1.8211592849,5.1412150795,-1.1014177279,,,
0.6953125000,44,4.0231196280,4.7857382412,5.6727013977,4.8725041128,-3.6521246479,1.1430413321,1.0660827750,1.4004143887,3.3925517400,-2.8752238677,4.0028181874,7.0338901906,7.6073746456,2.5981262260,,,
0.6992187500,44,4.3597978268,2.5497616687,6.4066830865,4.2585110852,0.7151819290,7.2384564075,0.9897291250,3.2043209329,8.6867814015,-4.5972539498,4.4488718676,8.7503625392,5.7344525931,3.7265855767,,,
0.7031250000,45,2.6476631331,-0.9505377409,4.2243283583,1.7856257895,4.0490040771,10.5356332509,0.2733158223,3.0645807739,8.4519086395,-7.2077527051,2.1381984564,6.8621447851,0.5750996939,2.3726448839,,,
0.7070312500,45,0.0618570987,-3.6175350888,1.0005842797,-1.3161975555,5.9304564180,9.0852272099,-0.5479840946,2.7680139566,5.3766454173,-8.8632331567,-1.0629897069,3.1659266840,-4.7399798395,0.2088863841,,,
0.7109375000,45,-1.7517132965,-3.7761107901,-1.1285809363,-3.4465872231,6.7866611627,3.4122753898,-0.8864406724,3.9892408394,3.3094124660,-7.6318182254,-2.9137914069,0.0161064375,-6.9771938841,-0.7115626069,,,
0.7148437500,45,-1.6773239704,-1.3043179168,-1.2205173789,-3.6418786074,7.0522891470,-3.8235486878,-0.5214310984,6.8235587987,4.2613932505,-2.9799351559,-2.3324606763,-1.2048831381,-4.9188822389,0.5443068444,,,
0.7187500000,46,0.2167789698,2.2184189566,0.0104497585,-2.1530727926,6.5858890368,-9.2906682750,0.2656147214,9.4387349849,6.9220025742,3.5732518789,-0.0414079518,-0.7529807425,-0.1354612304,3.1019331732,,,
0.7226562500,46,2.7589566082,4.5068728450,0.9619710387,-0.2118783965,4.8350738670,-10.7146548549,0.9013367620,9.2117590444,7.7845210151,9.1578370457,2.0812564684,0.0072786208,4.1330092463,4.9275731025,,,
0.7265625000,46,4.3752391304,4.0476417293,0.4575228913,0.8233231058,1.5346095003,-7.9443282751,0.8936366125,4.6439027563,4.0507535585,11.1693319015,2.3995631961,-0.2131508344,5.1798490365,4.3291943373,,,
0.7304687500,46,3.9466925419,1.0470809087,-1.4108551594,0.3358670415,-2.7331929856,-2.8448227493,0.1220865309,-3.2749469752,-3.8650802639,8.7483585078,0.6366823177,-1.7058302937,2.5729070369,1.2000697003,,,
0.7343750000,47,1.3654101155,-2.7672270864,-3.4550266706,-1.2301470591,-6.6357743672,1.8385812899,-1.0965529209,-11.2704164026,-12.1521576781,3.2250974206,-2.0214657743,-3.6822775861,-1.7141062210,-2.8700418475,,,
0.7382812500,47,-2.4177763981,-5.2878816101,-4.3079820207,-2.7430406615,-8.7884868006,3.9749623596,-2.1624235251,-15.5218375992,-15.9558126792,-2.6587255701,-3.7925688999,-4.9195413071,-4.7361127335,-5.6237097565,,,
0.7421875000,47,-5.8017703721,-5.2935462252,-3.3299502241,-3.1334054595,-8.5125761113,3.0923734087,-2.4692188149,-13.8489557245,-12.6104367784,-6.1987065110,-3.4551279842,-4.5584575234,-4.4757965115,-5.5235986391,,,
0.7460937500,47,-7.2094918192,-3.0338901387,-0.9048547189,-2.0174176968,-6.1129621712,0.4533818745,-1.6845787230,-6.9575355043,-3.4619646129,-5.9929036885,-1.0335748737,-2.5287255516,-0.9431835243,-2.5815107672,,,
0.7500000000,48,-5.7934428572,0.1222562746,1.9182145766,0.1527474169,-2.5632178189,-1.8139401525,0.0681707256,2.0021148838,6.9521492755,-2.4231979054,2.3283274684,0.5294040673,4.0590095852,1.7783681056,,,
0.7539062500,48,-1.9158429076,2.6057083595,4.0396254679,2.4161555905,1.0649545136,-1.9943998349,2.2015348086,9.2016078132,13.7022259557,2.7007381481,5.0880013834,3.6236422762,8.0942738766,5.5599600211,,,
0.7578125000,48,2.8437963661,3.4881102631,4.7472216207,3.8338093962,3.9823299990,0.2624540919,3.8611626417,12.0765963874,14.2878397595,6.9711399280,6.0975087767,5.7633319121,9.3150994471,7.1465078458,,,
0.7617187500,48,6.2789787081,2.7831315655,3.8323626039,3.9004952775,5.7016358285,3.8278865367,4.2858923371,10.3270978750,9.6990332865,8.2705897551,5.0355723176,6.1990465302,7.1184257461,5.8947979952,,,
0.7656250000,49,6.5992390338,1.1761966807,1.5299630475,2.6812489151,5.8991429218,6.8141799907,3.1870593550,5.5942521521,3.2841526476,5.5097909406,2.3700379144,4.6125473656,2.1537208558,2.2485175117,,,
0.7695312500,49,3.4575597745,-0.4934825464,-1.5269898263,0.7146621576,4.4397008232,7.6474831256,0.9424798751,0.2817766431,-1.5626913367,-0.8482542812,-0.9620984224,1.3124943498,-4.0252511669,-2.4976911983,,,
0.7734375000,49,-1.6564402412,-1.6161866232,-4.3405854494,-1.2092437348,1.6382782951,5.8614265614,-1.5414828663,-3.6407224517,-3.3101144670,-8.6348477304,-3.9021085173,-2.6712940883,-9.4120999317,-6.6229101173,,,
0.7773437500,49,-6.0451331313,-1.9057193110,-5.7555656160,-2.3378695264,-1.5344699025,2.2203258081,-3.2671793171,-5.2734208207,-2.7319844110,-14.5034061346,-5.5380696566,-5.8148067670,-12.1006212845,-8.5330352124,,,
0.7812500000,50,-7.2529157623,-1.3387788449,-4.9584664239,-2.2698555358,-3.6928977646,-1.7905019718,-3.6571499008,-4.8026842864,-1.9069719759,-15.2894750538,-5.3508707599,-6.7380722284,-11.0023836106,-7.3983737529,,,
0.7851562500,50,-4.5355883226,-0.1496270230,-2.0690072539,-1.1784616695,-3.7834405383,-4.7471622202,-2.8431658125,-3.1522007624,-2.6520731350,-9.7684990145,-3.4692896591,-4.9995734691,-6.5169755392,-3.6682325229,,,
0.7890625000,50,0.6019062118,1.1150561053,1.6462111061,0.2229631842,-1.8805308713,-5.9207269247,-1.5452403140,-1.4947320790,-5.3968156562,0.2264781003,-0.7768783929,-1.5112904193,-0.6295124064,0.9207473926,,,
0.7929687500,50,5.2420464549,1.7064962191,4.3002645967,1.0449862675,0.6558540881,-5.4873263214,-0.5938476602,-0.7212112138,-8.9995926134,10.3215802831,1.3807419976,1.8574086928,3.9564368768,4.1057486091,,,
0.7968750000,51,6.8218582864,1.1041400920,4.4984503540,0.7661115297,1.9806307329,-4.2666843262,-0.3863809630,-0.9849495200,-11.3756668886,15.8084903993,1.9191068660,3.3899987666,5.3623490284,4.3847074741,,,
0.8007812500,51,4.7235102584,-0.4552610441,2.3327955477,-0.3800558345,1.0773245771,-3.1598381482,-0.6407481767,-1.5683749149,-10.5034367085,14.3414261322,0.7778241239,2.6559103298,3.7664722390,2.0432296111,,,
0.8046875000,51,0.6368311397,-1.8616945819,-0.5261662815,-1.4881377384,-1.3837735340,-2.6061818096,-0.6310298312,-1.2917858377,-5.4295943723,7.3729063309,-0.8821449162,0.8255491289,1.3339493357,-0.8927464472,,,
0.8085937500,51,-2.5718907286,-1.7427173178,-1.8590450067,-1.5624468728,-3.3750458187,-2.3764393301,0.2429789905,0.6474073429,3.0094041575,-0.7184383497,-1.3548685671,-0.1582858326,0.7289192772,-1.9186734120,,,
0.8125000000,52,-2.7471517151,0.5018567465,-0.4268364781,-0.2426717895,-2.8832698439,-1.8136959747,1.9516060984,3.9289133069,12.0858850419,-5.3292890010,0.4059639841,0.9739424494,3.1959902796,0.2500995192,,,
0.8164062500,52,0.1683867466,4.0199099474,3.0695059859,1.8524647168,0.6356202627,-0.3359457464,3.7625496394,7.0557231514,18.0252128618,-4.4355321516,3.8824198122,3.7996185646,7.5949427480,4.7205225099,,,
0.8203125000,52,4.1503556794,6.8040086596,6.3230224455,3.4599263441,5.7510256719,2.1492030532,4.6590809878,8.1558759998,17.7236827845,0.3036963880,7.0927892486,6.3877879460,11.0874598689,8.8916991844,,,
0.8242187500,52,6.4443041369,6.8768699508,6.8641617202,3.4850444016,9.8238113803,5.1590694128,3.9646866191,6.1595026025,10.5833637256,4.8033273740,7.7247766764,6.5832387685,10.9561936262,10.0317360565,,,
0.8281250000,53,5.2980715414,3.5814539358,3.6476073699,1.7242643261,10.4815829031,7.8494127801,1.7649743660,1.5450013120,-0.6912296313,5.2757016009,4.5958423849,3.4776332872,6.2716072802,6.9001212786,,,
0.8320312500,53,0.9464323657,-1.9188781694,-2.2561869504,-1.0011870048,6.8574168925,9.3115081899,-1.1227979155,-3.8698956198,-11.0915992143,0.6177191132,-1.5108479430,-1.9575871297,-1.6362931043,0.4046516973,,,
0.8359375000,53,-4.6729271918,-7.2612624218,-8.2554738923,-3.3601075516,-0.0474459818,8.7935265562,-3.5807740302,-7.9382150520,-15.7711093727,-7.0070177190,-8.1679604681,-7.4555255125,-10.0050463592,-6.9922456284,,,
0.8398437500,53,-9.1188831369,-10.1777028024,-11.6618929297,-4.2895962280,-7.8830473184,5.8826177185,-4.7377110125,-9.3018953346,-12.6215326028,-13.5905652500,-12.5480207628,-10.7667251091,-16.0328101237,-12.5910696488,,,
0.8437500000,54,-10.7099074757,-9.6171715432,-11.0389149070,-3.5303282939,-13.9191061974,0.7577700098,-4.3210366993,-7.9210811992,-3.4187473147,-15.6452538630,-12.7992076988,-10.7831441495,-17.9472912091,-14.6347517023,,,
0.8476562500,54,-9.1385580367,-6.0759391594,-6.7504137195,-1.6410128720,-16.0032980119,-5.5443222674,-2.6703417083,-4.7980536902,7.1600436332,-12.0254910234,-8.7883744999,-7.8273690174,-15.3386139455,-12.7688348987,,,
0.8515625000,54,-5.2786180068,-1.1168603804,-0.5769103160,0.4285119147,-13.2547161336,-11.1368182775,-0.4890920967,-1.2370056585,14.0367834404,-4.2774882478,-1.9566407810,-3.1405264085,-8.9507479588,-7.7900576401,,,
0.8554687500,54,-0.5389172960,3.4601252737,5.2020958242,1.8833149129,-6.3858995333,-13.8400943500,1.4771842827,1.7972232602,14.2550866205,4.4126659404,5.4193621239,1.8759587309,-0.3599900703,-1.1126360537,,,
0.8593750000,55,3.7429481892,6.2917831204,8.7224123264,2.4158429328,2.4418276300,-12.2103694040,2.6895811052,3.8759494387,8.1390978119,10.8703327468,11.0766874774,6.1192129487,8.2728043594,5.6462174365,,,
0.8632812500,55,6.6130429652,6.7736633138,9.1204171162,2.1874203533,10.3005586314,-6.4976180663,2.9430112807,4.9262203467,-1.3357926205,13.2753950736,13.4267820334,8.8348694958,14.5644718682,10.9071072485,,,
0.8671875000,55,7.5970107054,5.1277677700,6.7259837233,1.5753900000,14.5902940404,1.1607092051,2.3733299586,4.9950546615,-10.2966724608,11.6725186567,11.9802233521,9.5513376519,16.6229312085,13.3999574870,,,
0.8710937500,55,6.7582899344,2.3208430197,2.8889524999,0.9227443448,14.1165966643,7.6163001488,1.3521611864,4.2013116904,-15.7076986139,7.6201258057,7.5275566490,8.1846255060,13.9515166394,12.5709423109,,,
0.8750000000,56,4.7213096459,-0.2398477331,-0.5589465022,0.4351660017,9.5810516503,10.2598950438,0.3015158504,2.8337343696,-16.2687589062,3.2838455518,1.9396633238,5.2462718654,7.9324730891,8.9126383086,,,
0.8789062500,56,2.4833618341,-1.3265992574,-2.1291879937,0.1886081772,3.1512624727,8.3504184903,-0.4898161210,1.3671791692,-12.3837132466,0.4027326102,-2.5530982241,1.8106642640,1.3151107107,3.8586118748,,,
0.8828125000,56,0.9352584794,-0.6269875281,-1.4748091664,0.1343993082,-2.6855866984,3.3285873409,-0.9503364403,0.2635477911,-5.6173224788,-0.4587549100,-4.4442478675,-0.9661118518,-3.2193255678,-0.8713030549,,,
0.8867187500,56,0.3273547043,0.9270533907,0.3315336842,0.0761015638,-6.3111696877,-2.0422712874,-1.1750842152,-0.3135765486,1.9261470099,-0.0653605311,-3.8276840390,-2.5398962084,-4.5773321871,-4.1364684808,,,
0.8906250000,57,0.1052742094,1.6596312731,1.3689753281,-0.2912540566,-7.5044845829,-5.1517062305,-1.2978912773,-0.5966921096,8.1614680418,0.0199728101,-2.4012828096,-3.3328329547,-3.8070227336,-5.8706040852,,,
0.8945312500,57,-0.6598891205,0.3140036607,0.0937613538,-1.2000827949,-7.0746568060,-4.7813356689,-1.3819709007,-0.9883970088,11.5702768892,-1.5686242496,-2.3878176662,-4.3562553317,-3.2256077001,-6.8359543090,,,
0.8984375000,57,-2.4867677412,-2.8961857633,-3.5051734563,-2.5506616593,-5.9816503830,-1.5099483866,-1.3854762925,-1.6740039025,11.6899500151,-5.0461135274,-4.9340360939,-6.2723504016,-4.6516439986,-7.7915210389,,,
0.9023437500,57,-4.9210283261,-6.1788890050,-7.6340009588,-3.7762161517,-4.6376066981,2.7796832142,-1.1966244234,-2.4117190782,9.2791024472,-9.1378625296,-9.0586122663,-8.5847410114,-7.9494242035,-8.6902925751,,,
0.9062500000,58,-6.6727043231,-7.2129044546,-9.6277411770,-4.0278942197,-2.8619886123,5.9172568000,-0.7036739415,-2.7158245188,5.9012599208,-11.6549309011,-12.0064590347,-9.6741127401,-10.9468686968,-8.5592070644,,,
0.9101562500,58,-6.4353315493,-4.7191262771,-7.6161433407,-2.6767282097,-0.4073337213,6.4536853111,0.1254242942,-2.3082456332,3.0180650710,-10.7373173975,-10.9612078767,-7.8304421179,-10.8706328037,-6.2460017331,,,
0.9140625000,58,-3.8365695376,0.5210057664,-1.8732366301,0.1502546288,2.4737966265,4.2328895860,1.1671853912,-1.4451413875,1.1209119781,-6.0346891425,-5.0517265802,-2.6395263190,-6.3518472426,-1.5300843120,,,
0.9179687500,58,0.1798651219,5.9612382020,5.1057907194,3.4184544260,4.9419769328,0.3388149562,2.1063578463,-0.7804056157,-0.4576544168,0.9446425360,3.7595062314,4.3251142994,1.4153041157,4.2857543155,,,
0.9218750000,59,3.8556843985,8.7842586963,9.9715890665,5.6442939819,6.0554260535,-3.5011807879,2.5099332648,-0.8030159545,-2.8143953752,7.5786792529,11.6334697400,10.1619680335,9.2185823445,8.8866450567,,,
0.9257812500,59,5.6658691560,7.6302687822,10.5065366396,5.7450627162,5.4314944317,-5.7601173571,2.0466912102,-1.2952421203,-6.2801073681,11.5041319811,15.0929795137,12.3252611091,13.7099110653,10.3118591936,,,
0.9296875000,59,5.1712836443,3.3944603551,6.9139297225,3.7160189921,3.5398160124,-5.8054966773,0.7514106021,-1.3371372012,-9.6791300508,11.7356970481,13.0429312167,10.1795463299,13.3085278726,8.2098638669,,,
0.9335937500,59,3.1055011714,-1.4454133015,1.5393241337,0.6447959388,1.3759952566,-4.1094926772,-0.8854700164,0.0035397838,-10.7756540036,8.8717170807,7.2296321652,5.3083426254,8.8692206994,4.0391385616,,,
0.9375000000,60,0.7219374645,-4.4786137035,-2.7410770621,-1.9610027131,-0.2317519160,-1.8755491150,-2.1519390694,2.7485523338,-7.8081999995,4.4050364616,0.9285310967,0.3780126445,2.8422312004,0.0637481995,,,
0.9414062500,60,-1.0405041434,-4.8146976528,-4.2951390347,-3.0642291568,-1.1225759034,-0.2953156733,-2.5598575477,5.6225881561,-1.1008829782,-0.2308117620,-3.1213480968,-2.5712562123,-2.2804223681,-2.0850620581,,,
0.9453125000,60,-1.9555335342,-3.3508526236,-3.4567612879,-2.6049184089,-1.7053881904,0.1423852386,-2.1636710061,6.6791090524,6.5196606325,-4.1687051629,-4.1096959363,-3.1760738594,-5.1208467945,-2.2255050789,,,
0.9492187500,60,-2.2730588422,-1.7727936217,-1.8312394568,-1.3340298913,-2.3705274127,-0.1011242841,-1.4700511699,4.6467683383,11.0673494811,-6.9454494652,-3.0906878514,-2.5126484592,-5.6114107498,-1.3310019589,,,
0.9531250000,61,-2.1807117933,-1.1451440184,-0.8745433758,-0.1794661915,-2.9574308319,0.0382589286,-0.9837077276,0.0476768846,9.8223989088,-8.0731966495,-1.7868436733,-1.9513183264,-4.4727593897,-0.5300370168,,,
0.9570312500,61,-1.5084436135,-1.1948330684,-0.8779110495,0.3507714558,-2.8016932570,1.4567400464,-0.7533509052,-4.8242478878,3.2793658007,-6.9523076172,-1.2910407049,-2.0771741600,-2.5892050392,-0.2718767943,,,
0.9609375000,61,0.0390272434,-0.7829520718,-1.0419501352,0.3267657663,-1.3823726863,4.1239377957,-0.3080171202,-7.1973493968,-4.7788436544,-3.3406928707,-1.5578241842,-2.4465203739,-0.6869643525,-0.2522846405,,,
0.9648437500,61,2.3400837162,0.8970765359,-0.4199200724,0.1109456081,0.9800652074,6.8426571636,0.9265402938,-5.5756562007,-9.3238525817,2.0093600502,-1.8419804920,-2.2164698469,0.7000454252,0.0049833943,,,
0.9687500000,62,4.5387004634,3.4112019996,1.1246311667,-0.0353491354,3.0468839294,7.8034178915,3.0362089179,-0.7645953067,-7.1036326270,7.1983080789,-1.5447453095,-1.0324340621,1.2032886310,0.5233119758,,,
0.9726562500,62,5.3391340418,5.2287820863,2.7197124624,-0.1115125522,3.3979475274,5.7141440933,5.3302649216,4.5358068926,1.1886101218,9.8634305372,-0.7467970007,0.5586708788,0.6761074883,0.7619856090,,,
0.9765625000,62,3.8059779550,4.8421600810,3.1616523057,-0.2445106941,1.4828151953,0.8123072285,6.6323247792,7.3159316638,10.9907186222,8.4317648458,-0.0713430728,1.4743878329,-0.6978891731,0.0822082057,,,
0.9804687500,62,0.1240665383,2.0099958842,1.8947806238,-0.4709632719,-1.8240699422,-4.9841487036,5.9877841115,6.0189899611,16.2834684502,3.1847219408,-0.0806680017,0.9417861520,-2.3613845805,-1.6282850211,,,
0.9843750000,63,-4.2648377977,-1.8540676474,-0.4859121761,-0.6613039060,-4.6379186371,-9.0159707702,3.2959540529,1.4086972875,13.0363896676,-3.6331353596,-0.7417341165,-0.8297995309,-3.4967501277,-3.6936768387,,,
0.9882812500,63,-7.3401725946,-4.5109828822,-2.6020633525,-0.6289069242,-5.2132240077,-9.3819269928,-0.5796834700,-3.9435217967,1.7100561289,-8.9017159095,-1.3975258521,-2.6739746163,-3.3130827183,-4.9715597442,,,
0.9921875000,63,-7.6357860447,-4.4034016882,-3.2574771844,-0.2979134779,-3.0609703122,-6.0365766703,-4.2865342658,-7.1924101313,-12.7046332628,-10.3585524235,-1.2676643859,-3.2132433771,-1.4325300006,-4.5449859593,,,
0.9960937500,63,-5.1219492427,-1.7692570367,-2.2832293354,0.2174758284,0.7149916230,-0.7732900742,-6.6930615474,-6.8256100543,-23.2389190375,-7.8932644028,-0.0946792542,-1.8228833597,1.7864562653,-2.3282938706,,,
1.0000000000,64,-1.2265160876,1.4775823925,-0.6232738936,0.6773746093,4.0841063892,3.8470856975,-7.3611100165,-3.3964281251,-24.6680101789,-3.4829544089,1.5669847811,0.8789150857,5.2041319850,0.8081468579,,,
1.0039062500,64,2.0594268871,3.0550569102,0.4045327958,0.8695471847,5.3140543030,5.8735407550,-6.5436747627,0.9838984458,-16.2441014823,0.2379038027,2.6642470050,3.3885793797,7.2822009542,3.4862833272,,,
1.0078125000,64,3.3678617013,1.8494376788,0.0750374941,0.7425551704,3.9547134977,4.8390062117,-4.8351760512,3.9750065268,-1.9088298397,1.7145984124,2.3379339874,4.2573388874,6.7874227144,4.5528852703,,,
1.0117187500,64,2.6503137475,-1.3838671541,-1.2605840912,0.4341475925,0.9978147854,1.7498831976,-2.7801037700,4.3045628113,11.9830306108,1.3080257632,0.5111279100,2.9705892947,3.4592609273,3.6589414925,,,
1.0156250000,65,1.0628235018,-4.5034369781,-2.4092187359,0.1790992040,-1.7914658324,-1.6854628956,-0.6726602876,2.3301115668,19.9875420454,0.8408542774,-1.9704458238,0.2784039219,-1.7008023845,1.4352534050,,,
1.0195312500,65,0.1926165853,-5.2893032843,-2.0881743005,0.1492035105,-2.9111545844,-4.0424077638,1.3857121692,-0.3663335738,20.0514328703,2.2244792567,-3.7229777961,-2.1854519068,-6.6905585697,-0.7801815830,,,
1.0234375000,65,1.0365698902,-2.8512378267,0.1946656767,0.3237200718,-1.9350469204,-4.7415882596,3.2674322070,-2.0685769443,13.8924576517,5.9389200141,-3.5862678746,-2.8543231352,-9.3139843560,-1.6079922665,,,
1.0273437500,65,3.2903157514,1.6843683285,3.6293078398,0.4814870761,0.3271140558,-3.9478538832,4.6490631139,-2.0303571260,5.3511403367,10.3329841219,-1.3850724371,-1.2583162147,-8.2655947933,-0.4534591415,,,
1.0312500000,66,5.4180196489,5.7149276226,6.3665952208,0.3344209088,2.3694616854,-2.1037567629,5.0726364407,-0.8801894733,-2.0051815595,12.3700329748,1.8031133068,1.5452800191,-3.9331825102,1.9746919078,,,
1.0351562500,66,5.5756793585,6.7236103831,6.5610389834,-0.2652214970,2.8822340331,0.3949351977,4.2404226903,-0.0225995786,-6.4446580747,9.5367855970,4.1851022325,3.5679608555,1.6726246759,3.9423043810,,,
1.0390625000,66,2.8903032847,3.9291140484,3.6251822893,-1.1686387954,1.4724430216,3.1429452423,2.3326213699,-0.4430565293,-8.0552315723,1.7291349981,4.3766894545,3.2377679017,5.9793717031,3.7859845809,,,
1.0429687500,66,-1.7939519803,-1.1022647414,-1.1955131484,-1.9477409971,-1.1927360927,5.5232150350,0.0642650638,-1.8554886118,-7.6976257469,-8.2587815751,2.3376451453,0.5439736046,7.2600157366,1.0911613592,,,
1.0468750000,67,-6.2659045253,-5.3243842854,-5.3996659360,-2.1025844676,-3.8501364886,6.7175950490,-1.6165793740,-2.8491242814,-5.9981653084,-16.0869938742,-0.5649095120,-2.8657992848,5.4860244904,-2.9213989660,,,
1.0507812500,67,-8.1359897283,-5.9914767515,-6.5964130447,-1.3434176126,-5.3353420722,6.0092843024,-2.0034143748,-1.8530440852,-3.0230632963,-18.1658904421,-2.3469802953,-4.6702640533,2.2046419782,-6.0048528866,,,
1.0546875000,67,-6.1685548126,-2.3178082324,-3.8826008924,0.1966186283,-5.0583108556,3.2275079435,-0.9985524376,1.7270381266,1.2625053384,-13.4864847152,-1.5728901867,-3.3348266064,-0.4264419054,-6.1303811109,,,
1.0585937500,67,-1.0974625870,3.8898878656,1.4845109807,1.9326077981,-3.0934995810,-0.9122011004,0.8113139496,6.8352334045,6.1210855394,-4.0435029604,1.6760713313,0.7826171298,-0.9425346921,-2.7692509519,,,
1.0625000000,68,4.5614489781,9.0745113586,6.5660112359,3.0548933724,-0.0124485511,-4.8720908094,2.4149386619,11.0192012986,9.5929394930,6.2524750835,5.6026288479,5.4130120892,0.5375749248,2.5408287425,,,
1.0664062500,68,7.7613813380,9.9183354034,8.2751574821,2.9529387301,3.3429594623,-6.8992840426,2.8675858989,11.6449824412,9.2085243232,13.4905462592,7.5569307772,7.6068192202,2.4301764414,6.8704786715,,,
1.0703125000,68,6.6462523238,5.3751337789,5.1897558823,1.5994868631,6.0617793666,-5.9380581790,1.7825821530,7.4819652079,3.7091342745,15.4455515985,5.6172387908,5.5466562187,2.7845503695,7.5870771348,,,
1.0742187500,68,1.7239906766,-2.5432670697,-1.4564012249,-0.3789412246,7.3716935570,-2.3139344448,-0.4413932519,-0.3160632694,-5.4223556554,12.2337657403,-0.0490166115,-0.1988680846,0.6552401535,4.0468515282,,,
1.0781250000,69,-4.3128865916,-9.8237434626,-8.3163150594,-2.0276732928,6.8779394598,2.2884577489,-2.8096488479,-8.5673105366,-14.0449074766,5.8142543258,-7.0069653440,-6.8374641675,-3.1736414042,-1.8723416223,,,
1.0820312500,69,-8.1180671440,-12.7836902095,-11.7915606990,-2.5905775662,4.7680836721,5.6179639133,-4.2610895168,-13.6884801690,-17.5020983706,-1.1732936323,-11.8280634932,-10.9102280257,-6.6063574762,-6.8619658312,,,
1.0859375000,69,-7.6784063050,-10.2369838707,-10.1175519006,-1.9094822393,1.8207195359,6.0099454797,-4.2413230828,-13.6720739876,-13.6393726670,-6.5508317272,-12.0945822322,-10.3149448583,-7.5342501855,-8.2486269606,,,
1.0898437500,69,-3.4752091767,-4.0589325208,-4.3379931496,-0.4627178335,-0.9566442166,3.2877206674,-2.9611334618,-9.1603283576,-4.4247644682,-9.2490033110,-7.8323864253,-5.5018758109,-5.2051595486,-5.6326975251,,,
1.0937500000,70,1.9812391958,2.2419194572,2.4856203698,0.9583184436,-2.9615826067,-1.0797325586,-1.1711550663,-2.8710468765,5.3609624510,-9.3294856182,-1.3934504958,0.9488532000,-0.7853845073,-0.9443672152,,,
1.0976562500,70,5.8644033041,5.8563597057,7.2253436170,1.7096191007,-4.3802608301,-4.7219625917,0.3624424977,2.2149821837,11.4543825682,-7.5579003585,4.0885358810,6.0088266085,3.3016295966,3.0263565124,,,
1.1015625000,70,6.6438226372,6.1543955600,8.3578896649,1.5888778489,-5.8283622634,-5.7000873091,1.2648834355,4.5606916146,12.6598877402,-4.8893640829,6.5154126864,7.8861794876,4.8610173285,4.3968710264,,,
1.1054687500,70,4.5171624644,4.4020847385,6.3177344690,0.8137693889,-7.4669849729,-3.6620642674,1.5726519814,4.5093355168,10.6654370919,-2.1562479194,5.7106313070,6.6375561145,3.2524239164,3.0203381759,,,
1.1093750000,71,0.7674661853,2.3331267082,2.6829714014,-0.2154557458,-8.4731808644,-0.0173599609,1.4828092008,3.4215892505,7.8544379958,0.0447581315,3.0413554949,3.6134905998,-0.3034150418,0.1315780735,,,
1.1132812500,71,-3.1292700616,0.8913729062,-0.9242033846,-1.1640277213,-7.4844004955,3.0169987825,1.1398135695,2.4354916418,5.3434929682,1.4394644098,0.3188736115,0.4132474487,-3.5792625848,-2.6039371246,,,
1.1171875000,71,-6.0298414613,-0.0381496190,-3.4922095650,-1.8752234638,-3.7231008643,3.8060100801,0.6219469139,1.8105984869,2.6772477083,2.1932528155,-1.2169688970,-1.9028064363,-4.7337495095,-3.9421908463,,,
1.1210937500,71,-7.2044792853,-0.9969816396,-4.6451054763,-2.3080634951,2.0935356566,2.1730757698,0.0529310518,1.1699406806,-1.0479142602,2.9072832815,-1.2972340264,-2.9854216710,-3.3175710093,-3.4347756333,,,
1.1250000000,72,-6.2576827767,-2.1081618108,-4.3207005767,-2.3815599937,7.8101443356,-0.7319380279,-0.3331148283,0.2193502303,-5.8767291221,4.3051807889,-0.3669771805,-2.8886576167,-0.2870489150,-1.3322585988,,,
1.1289062500,72,-3.1865120697,-2.7437275732,-2.5419919230,-1.8945827146,10.9112819348,-3.3336545478,-0.2749437409,-0.7735186866,-10.5961060831,6.6443427614,0.9605035972,-1.7206683897,2.8626952480,1.7214157665,,,
1.1328125000,72,1.4007541492,-1.9812709890,0.4772850422,-0.6485015745,9.9448512991,-4.5827487480,0.3226367731,-1.1520126838,-13.4020339615,9.2014338557,2.2645602196,0.3744152919,5.1031764131,4.9197124499,,,
1.1367187500,72,6.1721480100,0.4924256882,4.0349026920,1.2789662732,5.3730828040,-4.3289656457,1.2309317143,-0.4974009482,-12.9654677977,10.2994276446,3.2674086404,2.9153600902,6.2336666431,7.3565069637,,,
1.1406250000,73,9.3730768183,3.7649315343,6.8537070379,3.3393605939,-0.6694597435,-3.0189184014,1.9328871060,0.8881896862,-9.1072743890,8.1034265146,3.5736865814,4.8721070911,6.4365774054,8.0795009964,,,
1.1445312500,73,9.5807389781,5.9725863498,7.5157794219,4.6386619135,-5.5121444311,-1.1375404563,1.9013756949,2.1148313540,-2.7718852144,1.8992819320,2.6483742186,4.9797950366,5.6322756037,6.3727479798,,,
1.1484375000,73,6.5563532936,5.4406818020,5.3032644782,4.4113169946,-7.2553054570,1.0927844548,0.9775036090,2.3848809357,4.4612818863,-6.9122797640,0.2706213291,2.5695766386,3.4229800123,2.2848574414,,,
1.1523437500,73,1.6153619167,1.9546477295,0.8905104814,2.5720749135,-5.5240911150,3.5781568159,-0.4345981869,1.6473956547,10.9066208904,-14.9382768016,-2.8583549151,-1.6613756248,-0.2214776641,-2.9599272255,,,
1.1562500000,74,-2.8888090328,-2.8080425219,-3.7332880095,-0.0746351188,-1.3928838473,6.0280812611,-1.5656120118,0.6355825472,15.1157680629,-18.3038917033,-5.0488793564,-5.6714131517,-4.2543214020,-7.1862011279,,,
1.1601562500,74,-4.8214071993,-6.1548184849,-6.2707201322,-2.2138944080,3.2865004367,7.8185293305,-1.7859495650,0.2149043989,16.0861671390,-14.8561534015,-4.5010046643,-7.1247920480,-6.7379226690,-8.2958718244,,,
1.1640625000,74,-3.5382910743,-6.0885570570,-5.5079869530,-2.8092947956,6.6995398082,8.2019131378,-1.0531335211,0.5919884687,13.4714015849,-5.6659318107,-0.6938035204,-4.8956246434,-6.0777029997,-5.5892761780,,,
1.1679687500,74,-0.3090501212,-2.6846079873,-2.1484929372,-1.7684263543,7.6837125111,6.6987680441,0.0545467636,1.0972308768,7.7918625670,5.3282457119,4.7992611101,0.0277324082,-2.3929936871,-0.4392435430,,,
1.1718750000,75,2.4722646546,1.8885977059,1.5700434736,0.0120560055,6.0256166586,3.3809708429,0.7583979390,0.7751916264,0.4651462906,13.4880073279,8.9242555473,4.9843670725,2.2131896838,4.3245820592,,,
1.1757812500,75,2.8168685742,4.7841893905,3.2970855545,1.2744151255,2.4526169582,-1.0981214011,0.6384145295,-0.7005067137,-6.5234030137,16.0681817335,8.9846663832,7.2398188328,4.9152555473,6.0671019478,,,
1.1796875000,75,0.3910839031,4.3493486688,2.0725284897,1.2421954915,-1.6599177479,-5.6572923423,-0.0883624170,-2.5901596159,-11.2716808219,13.4617103513,4.4519641255,5.6729102986,4.0928689955,3.9645272852,,,
1.1835937500,75,-3.3548728918,1.1270984419,-1.1400668448,0.0622263919,-4.8318381809,-9.0114575315,-0.7774344465,-3.5660888383,-12.6528921209,8.2865612651,-2.6166312695,1.3618801639,0.4201119003,-0.5427721044,,,
1.1875000000,76,-6.2317713763,-2.6952654474,-4.2390350773,-1.4391120499,-6.1220486663,-9.9784480686,-0.8963804305,-2.7877808269,-10.7168906001,3.1223463914,-8.9242272065,-3.3167666806,-3.7609131599,-4.7882729604,,,
1.1914062500,76,-6.7677608542,-4.9143509505,-5.4669433157,-2.4366266398,-5.5680233996,-7.9380262091,-0.4757662813,-0.7201174435,-6.6263444625,-1.2799324457,-12.0601995856,-6.3377958913,-6.2495437158,-6.6546134861,,,
1.1953125000,76,-5.0620811753,-4.7629052280,-4.4892686339,-2.6714157017,-4.1116750529,-3.3262006826,-0.0991458410,1.0250321710,-2.1659656610,-5.9078016213,-11.8078641697,-7.1534472320,-6.4723865970,-5.8085532481,,,
1.1992187500,76,-2.4986413933,-3.1441416340,-2.3496449162,-2.4900919268,-2.9679555401,2.2151313144,-0.4128306806,0.8091022772,0.9893956560,-11.6810599115,-9.7091965806,-6.5309277303,-5.4688742003,-3.5695778156,,,
1.2031250000,77,-0.6252974389,-1.6166223618,-0.4866124897,-2.3913300896,-2.8030065390,6.3819710419,-1.5387666105,-1.7414163273,1.9721991304,-17.5818790930,-7.3982848327,-5.4428657687,-4.5482817375,-1.6556586934,,,
1.2070312500,77,-0.0837901467,-1.0719342462,0.3222998311,-2.5019135315,-3.3053789000,7.3364218138,-2.8804541143,-5.2657961847,1.0622214146,-20.5177905413,-5.2059261692,-4.1033942742,-3.9447996271,-0.8728856105,,,
1.2109375000,77,-0.3555028736,-1.1902719093,0.2938935212,-2.4380688960,-3.4903420400,4.7637767836,-3.5007326985,-7.4547262150,-0.5699271270,-17.3047748446,-2.2191758010,-2.0021388760,-2.7146175635,-0.7404399173,,,
1.2148437500,77,-0.3869014603,-0.9969548943,0.1539702928,-1.6579478661,-2.5058120368,0.0989966552,-2.7755671544,-6.5847899266,-1.6477827194,-7.3205562227,2.3701075436,1.1976790565,0.1046134317,-0.1868394792,,,
1.2187500000,78,0.5244389951,0.1186680625,0.4170816153,0.0250120935,-0.2956022658,-4.3124862553,-0.8106242312,-2.6943947128,-1.6223125989,6.3292456009,7.9593948314,4.8544969407,4.2521940229,1.4120102280,,,
1.2226562500,78,2.2990881134,1.8743505222,1.0922819617,2.2253692375,2.3982425798,-6.5827869225,1.6699013777,2.4731861976,-0.9087342793,18.2216310400,12.5381438074,7.5005999369,8.1461837265,3.7381337302,,,
1.2265625000,78,4.3112358059,3.4515793863,1.9551996245,4.2301509701,4.6495421785,-6.2453204947,3.8183849003,6.7091839212,-0.2500214275,23.7017977879,14.0569285195,7.9034479016,10.0362518812,5.8709239322,,,
1.2304687500,78,5.9194140498,4.2853631531,2.9567785817,5.4531940369,6.0239880662,-4.1942624003,5.1373241682,8.8067885608,0.3271230838,21.4665034631,11.9889060549,6.1163628182,9.3408605212,7.0155703105,,,
1.2343750000,79,6.7814449285,4.4940788120,4.2638038064,5.7071170121,6.7413096685,-1.7606534890,5.6099715270,9.1394893860,1.9819168642,13.9158506219,7.7455510971,3.5596214426,6.9749575061,6.9458722309,,,
1.2382812500,79,6.7759944364,4.5762160664,5.8691581046,5.1287167339,7.2201345232,0.2891966658,5.4679895746,8.9438771619,6.2440849836,5.2538638622,3.6076229883,1.9853412343,4.4404699469,5.8769164569,,,
1.2421875000,79,5.7654596739,4.7222150080,7.1940685608,3.9214265010,7.4485924012,2.0677198393,4.8423075047,8.9261749490,13.2310686638,-1.1427890891,1.0730420126,2.1198478083,2.5502569160,4.0458329990,,,
1.2460937500,79,3.5483228368,4.4440435993,7.1642092508,2.1934393631,6.7760528702,4.0464607803,3.5982701067,8.3601049878,20.2691416599,-4.3153758328,-0.0520505723,3.0573498892,0.9036333533,1.4872317264,,,
1.2500000000,80,0.1216467803,2.9296694857,4.8491900102,0.0220501176,4.3644019673,6.2490865872,1.4920580782,5.5004116072,22.4224051668,-5.4932432356,-1.1652887454,2.9111375747,-1.4943201310,-1.7787744441,,,
1.2539062500,80,-3.9569320299,-0.1303824218,0.2642803212,-2.3539816167,-0.0165566977,7.9078985368,-1.4691655836,-0.8614138932,15.2644521116,-6.5717207974,-3.4636502321,0.2869969564,-5.0579067712,-5.3576668705,,,
1.2578125000,80,-7.4843765202,-3.9542332530,-5.2730402762,-4.4306533885,-5.4659174798,7.9101572395,-4.7557961719,-9.8220111156,-1.5904644490,-8.5219330502,-6.7758101339,-4.4779659407,-8.8971672451,-8.3049435120,,,
1.2617187500,80,-9.0437545994,-6.8960146033,-9.6025671624,-5.5715490743,-10.1432646800,5.6815757324,-7.3912838921,-18.0815797377,-22.7553754691,-10.7490553242,-9.5324888904,-9.2362099779,-11.1517910475,-9.4198154474,,,
1.2656250000,81,-7.8016096384,-7.4327568309,-10.8205945781,-5.3247147792,-12.1183040974,1.7845540950,-8.3912104321,-21.4549691681,-38.9234170777,-11.6389041957,-9.8690917986,-11.2401286977,-10.1570946892,-7.8935217986,,,
1.2695312500,81,-4.1440561648,-5.2132485025,-8.3533781687,-3.7000017702,-10.3714895582,-2.2631425957,-7.3014696735,-17.3771633051,-41.7186925303,-9.7627980467,-7.0064782646,-8.8658714218,-5.6063704946,-3.8920286344,,,
1.2734375000,81,0.3805002492,-1.3648426605,-3.2996723108,-1.1982578114,-5.3505664790,-4.8287782734,-4.4712473167,-6.7463062603,-28.6612610571,-4.8959427773,-1.8875846873,-2.7090232256,1.0894033032,1.3554542694,,,
1.2773437500,81,3.8675524963,2.1921466941,2.1735107927,1.4166108562,1.2016613725,-5.0615952458,-0.8758774700,6.2327267125,-4.9837524124,1.7367542769,3.3468285109,4.6467231253,7.4454930973,6.0674473307,,,
1.2812500000,82,5.0749297338,3.9047905444,5.9512345714,3.4169085260,6.9805035736,-3.2630661827,2.3692895770,16.1979137413,18.9923637748,7.9982535577,6.5895032121,9.9874520259,11.0836321206,8.7014655879,,,
1.2851562500,82,3.9525466970,3.3753082063,6.8897427584,4.2957303672,9.9877254854,-0.5868091665,4.4664443362,19.3995356139,33.3080609125,11.7319699780,6.8154546758,11.0773652057,10.7314688842,8.5300445457,,,
1.2890625000,82,1.4012251924,1.3030000244,5.0759289666,3.8156187905,9.1726248253,1.6154569707,5.1138987887,15.3702241081,33.3015651282,11.5527474808,4.3452633733,7.6182764450,6.5922692307,5.7289148503,,,
1.2929687500,82,-1.4182248038,-1.1855460228,1.4884518761,2.0267053534,4.7122551655,2.3483426122,4.4144010575,6.6582458725,21.2511254615,7.3299649502,0.3859517700,1.1811039388,0.1008967298,1.1079653520,,,
1.2968750000,83,-3.6462819409,-3.1817758379,-2.5426749802,-0.6754307863,-2.0352899892,1.1913764826,2.7081534202,-2.8707434359,4.2204245452,0.3462544919,-3.6348753664,-5.6509161648,-6.6403625353,-4.1793542097,,,
1.3007812500,83,-4.8230307651,-4.1791505817,-5.7356047307,-3.5111676167,-8.8462587720,-1.7265979847,0.4957501026,-9.8898190128,-10.1061746654,-6.9084664851,-6.4842997820,-10.3655578040,-11.4722306260,-8.7653612642,,,
1.3046875000,83,-4.6614679718,-3.8883171413,-7.0646313066,-5.4380066828,-13.1990453741,-5.7629935615,-1.5597863734,-12.6129770179,-16.9595443495,-11.4278132307,-7.2321613687,-11.3521997627,-12.7239129889,-11.1701834282,,,
1.3085937500,83,-2.9142114941,-2.1148697795,-5.9449182732,-5.5164823426,-13.0687428870,-9.7248277209,-2.7027678447,-10.8217407173,-15.6694056847,-10.8697994099,-5.3336491985,-8.3065635392,-9.6908955841,-10.1547827828,,,
1.3125000000,84,0.3899372132,1.0111714662,-2.5148166273,-3.4233852434,-7.8020200235,-11.9534074741,-2.3510730546,-5.4799467274,-8.5847255334,-4.8638576281,-0.9358936837,-2.2753799171,-3.0097891441,-5.3966167347,,,
1.3164062500,84,4.5101086904,4.6321307804,2.1246022517,0.1787890397,1.2694138707,-10.8082729339,-0.4921227067,1.5443715752,0.8412888788,4.2972989768,4.7256953743,4.5884863591,5.2421694860,1.8696147731,,,
1.3203125000,84,7.8761127761,7.1098373023,6.0617413693,3.7429583530,10.9330742450,-5.5490198020,2.0743698555,7.6969088001,9.3669975511,12.3012609442,9.3456417722,9.6182091103,11.9940970134,8.8768725261,,,
1.3242187500,84,8.6792091382,6.7033687620,7.3426081835,5.5130053158,17.1896104031,2.8466023338,3.9584059299,10.3365994482,14.3116017649,14.8644776804,10.4042080339,10.6132804582,14.3035535058,12.4025465092,,,
1.3281250000,85,5.9804250185,2.7542957372,5.1066908650,4.4898595531,17.0669105591,11.6059737989,3.9018455009,7.8955308835,13.6371458427,10.2398217202,6.6596656111,6.9479561739,10.8327066133,10.5412037515,,,
1.3320312500,85,0.5891757108,-3.4360514355,0.3740116657,1.1212308011,10.2810136640,17.1861726042,1.6078188558,1.0634060482,6.5725297493,0.5960177455,-0.6496325803,0.1916199629,2.8734597847,4.0987714819,,,
1.3359375000,85,-5.0443371665,-8.8703158593,-4.2236461606,-2.7843126469,-0.2970944037,17.0404079494,-1.9204269691,-6.9760559438,-5.2978528673,-8.8943193689,-7.9593334812,-6.3584361135,-5.9153279419,-3.4954007596,,,
1.3398437500,85,-8.0517895077,-10.3802689631,-5.8417198087,-4.9831566041,-9.8647283706,11.1404752021,-4.8579138529,-11.8347905946,-17.5566309959,-12.9827117814,-11.1807680619,-9.2566061546,-11.2306797077,-7.9935619750,,,
1.3437500000,86,-6.7998801322,-6.5677207624,-3.1819947831,-4.0774592432,-14.0916897883,2.2350180149,-5.6049899494,-10.2745162201,-24.2264114452,-9.5301261991,-8.2016285166,-6.8235086407,-10.4696615836,-6.8627936921,,,
1.3476562500,86,-1.9193614878,1.1271619780,2.5428287733,-0.3787691621,-11.3927933777,-5.4909895418,-3.7378624344,-2.2752741751,-20.7705577129,-0.8476743123,-0.4125556905,-0.2205393240,-4.2657258759,-0.9084638398,,,
1.3515625000,86,3.9748607017,9.0283079190,8.1583399576,4.2089917576,-3.7406795082,-8.6724027025,-0.2576762752,8.5479122383,-7.2225327189,7.7393514195,7.9224196018,7.0826539697,3.8309067195,6.1524498687,,,
1.3554687500,86,7.7176006612,13.2040993496,10.3305325117,7.2502590781,4.4804801453,-6.5948193959,3.0030150690,16.6247455265,10.8167427515,11.1703297682,12.1820358131,11.2146395826,9.4079629796,9.9569472829,,,
1.3593750000,87,7.3190347285,11.6329236038,7.5315792314,7.1471924165,8.9261167199,-1.4636532492,4.4328446121,17.3835222221,24.5546673520,7.6417226170,10.1788816975,10.0559985030,9.7206957082,8.1521863565,,,
1.3632812500,87,2.9971369286,5.2636914687,0.9665382119,3.9954227030,7.6380029201,3.0520876643,3.5166764569,9.8422159145,26.7941927935,-0.5251508656,3.3991237871,4.3575608611,5.1351575777,1.7513348108,,,
1.3671875000,87,-3.0070422524,-2.6076735729,-6.0977915178,-0.5525304942,1.9674214176,4.0692895200,1.0353962327,-2.6726491891,16.2984957702,-8.5196162460,-4.0744495950,-2.8009311446,-1.3480859732,-5.6187484065,,,
1.3710937500,87,-7.6671714776,-8.2159570102,-10.1947386792,-4.2778600073,-4.3960977067,1.1208567376,-1.4906638835,-14.1777460947,-1.1749140073,-12.0080873138,-8.1774695513,-7.8333412358,-6.0843296773,-10.0201242397,,,
1.3750000000,88,-8.7715817139,-9.3415036421,-9.6022666878,-5.6212119025,-7.6692168458,-3.7970550723,-2.7424405643,-19.2003815837,-16.0797164169,-9.5817636682,-7.2890234982,-8.6496727996,-6.9599026430,-9.5544633660,,,
1.3789062500,88,-6.0400207147,-6.3361142556,-5.2256393649,-4.4415947315,-6.1567610739,-7.6637970484,-2.3266869624,-15.6864350433,-20.6386560732,-3.2999196352,-2.9667396722,-5.6806461696,-4.4012796697,-5.3072914101,,,
1.3828125000,88,-1.1750034641,-1.6577766754,0.0765162579,-1.9221811269,-1.1055702665,-8.3237541892,-0.8474723564,-5.9868448410,-13.2687951352,2.8495942217,1.3363400740,-1.3798921389,-0.7242054566,-0.3938819602,,,
1.3867187500,88,3.1578869106,1.7114643921,3.2604442107,0.2499404686,4.2145406838,-5.6036182113,0.6465221277,4.6050560890,0.8237686337,5.5144123337,2.6003837155,1.4086822849,1.5575981599,2.1562613968,,,
1.3906250000,89,4.8250237303,1.9799156452,2.8404761419,0.8891410931,6.5717355376,-1.0755711621,1.3890276045,10.8414448865,13.0163164976,3.9425300764,0.0646401464,1.1544431442,1.2584203185,1.2532947793,,,
1.3945312500,89,3.3408919380,-0.5778889720,-0.4265482847,-0.1004680994,4.6859933146,3.1508409854,1.2927374080,10.2693027891,16.3078625125,0.1768185224,-4.5150680945,-1.6121980823,-1.0231748705,-1.7937421192,,,
1.3984375000,89,0.0104625037,-3.9711983490,-4.2044528336,-1.8308410758,-0.1345438377,5.6426754476,0.8208106228,4.2438886271,9.0185828400,-2.5115104768,-8.1276234110,-4.8311675338,-3.5663393834,-4.3379238351,,,
1.4023437500,89,-2.9077498302,-5.7292712015,-6.0289757719,-3.0506284509,-4.9289191985,6.0829941313,0.5266187964,-3.1728602334,-4.6782820435,-1.8311369034,-8.3237845657,-6.2270983429,-4.6576879355,-4.1354955538,,,
1.4062500000,90,-3.4975660555,-4.2747286693,-4.6166334937,-2.8522067705,-6.9225097778,4.8878247084,0.6362661998,-7.6058953790,-17.2794805689,2.1131865879,-4.4851765693,-4.5511723580,-3.4526979053,-0.6480502546,,,
1.4101562500,90,-1.2337308596,0.2530436438,-0.3669959374,-1.1038753883,-5.1034090388,2.5921413204,0.9468605113,-6.6500968468,-21.9541901434,7.0180190570,2.0134799396,-0.1265663835,-0.2334248382,4.7583383174,,,
1.4140625000,90,2.7486387296,6.0528744347,5.0216864327,1.5306066239,-0.6169308843,-0.3724283796,1.0536437120,-0.9007770413,-15.9957255248,9.9461445667,8.6067071054,5.4210350390,3.8431147477,9.6503058721,,,
1.4179687500,90,6.2912739030,10.5163613609,9.4492561689,3.9341463491,4.1307807280,-3.4216489825,0.6950913052,6.6044515884,-2.1185088412,9.1778706744,12.7592718847,9.9684055033,7.2534185112,11.8163061415,,,
1.4218750000,91,7.4152508435,11.4821675194,11.3246882300,5.0756383092,6.9501799083,-5.5623542889,-0.0495730580,12.0501327763,12.9959487894,5.1565069197,13.0282503974,11.8106864591,8.6754160400,10.3125919564,,,
1.4257812500,91,5.4178470476,8.3096339541,10.1180408057,4.5052340459,6.9485666885,-5.6570439220,-0.8426560426,12.7104618554,22.2084511751,-0.0113838021,9.5625240907,10.3128811083,7.4782564480,5.7941760507,,,
1.4296875000,91,1.2237776540,2.2299937882,6.4040454082,2.5568187285,4.6576206048,-3.2024366771,-1.3600980743,8.1714730141,21.6889792739,-4.0580849459,3.8861021917,6.0772565818,3.9828735306,0.0545302644,,,
1.4335937500,91,-3.2027515839,-4.2442824260,1.4750710573,0.1447480116,1.3764793208,0.9896300685,-1.5243192998,0.4268204065,12.8630027767,-5.9671831347,-1.8945220847,0.6118034914,-0.6468537179,-4.9069636417,,,
1.4375000000,92,-5.9859907455,-8.5694102491,-3.2407226372,-1.7240401602,-1.6525524550,4.9151808802,-1.5222217238,-7.1495011131,1.3669841251,-6.3434733831,-6.0520524902,-4.3251051090,-4.8814669003,-7.7651029230,,,
1.4414062500,92,-6.2945732373,-9.4023733664,-6.6851701270,-2.4412224922,-3.7107952110,6.4481503218,-1.6156287073,-11.4763194349,-6.4210740798,-6.5949283704,-7.8814539896,-7.4182728406,-7.4533324130,-8.2715367577,,,
1.4453125000,92,-4.5865903848,-7.1299653166,-8.4106546347,-2.0354188941,-4.6088826569,4.7172599387,-1.8999681030,-11.2672645637,-7.1864249619,-7.6262657501,-7.7334669651,-8.2376606076,-7.8021640413,-7.0759139788,,,
1.4492187500,92,-2.0965673275,-3.4283251608,-8.5068340038,-1.0596520154,-4.4649998040,0.7995810790,-2.1831892724,-7.5429863368,-2.4661383848,-9.0074018319,-6.5076175892,-7.2374634392,-6.1177510003,-5.1735953833,,,
1.4531250000,93,0.0202322964,-0.1748040500,-7.3152470622,-0.2104507458,-3.5173361806,-2.8531651409,-2.0667171252,-2.8291970213,2.6725279885,-9.1611802800,-4.9714322107,-5.3229155677,-3.0376204199,-3.3243702640,,,
1.4570312500,93,1.3036408160,1.5871972952,-5.1512233889,0.0995763730,-2.0529982512,-3.9487252572,-1.1910548265,0.4728112980,3.1659645814,-6.4218625368,-3.3483859315,-3.2540838491,0.7003038854,-1.7428673449,,,
1.4609375000,93,1.9891607243,2.0055061762,-2.2549704865,-0.0517071882,-0.3910981237,-1.8304705303,0.4866736311,1.4781098448,-2.6155020232,-0.3159699281,-1.4291349216,-1.2979650453,4.3633552268,-0.2011081556,,,
1.4648437500,93,2.4799924862,1.9582942635,0.9937039030,-0.2569848051,1.1437936439,2.1072303760,2.5555743373,1.0632235466,-11.7634147892,7.7056188131,0.9140923712,0.6258465299,7.0988052204,1.5490624676,,,
1.4687500000,94,2.7890667967,2.2005709428,3.8495757271,-0.1866785190,2.2634156129,5.3286851405,4.2749180949,0.8881468806,-18.7339901782,14.6232120930,3.2648906602,2.4796311135,7.9026523149,3.3497015582,,,
1.4726562500,94,2.4701954647,2.7798850233,5.3215580085,0.0961759870,2.7594326482,5.7499448597,4.9303151081,1.9917909236,-18.9678036233,17.2891598385,4.7135305348,3.8023953100,5.9859290452,4.5689638717,,,
1.4765625000,94,1.1182287969,3.1116248964,4.7224256567,0.1925630357,2.5466891505,2.9596994163,4.2229523257,4.0038096948,-11.8344630063,14.2486142278,4.4758353093,3.9140733135,1.4317956487,4.5070667946,,,
1.4804687500,94,-1.0249143010,2.5568431202,2.2797815954,-0.2461577756,1.6983841912,-1.6559573206,2.4389068875,5.4940347991,-0.9885481614,6.7863591020,2.6059449042,2.5025322497,-4.3881681605,2.9915005053,,,
1.4843750000,95,-2.9625024174,0.9851123639,-0.7460296667,-1.1373468416,0.4483814597,-5.8392307442,0.2809691747,5.1268198050,8.0599994020,-1.6567894505,0.1607471494,0.0851283919,-9.1523326414,0.6723975074,,,
1.4882812500,95,-3.5209510072,-1.0924726919,-2.6701388324,-1.9225851143,-0.8583723415,-7.7583181190,-1.5172656404,2.7336072532,11.5401733491,-7.4928167874,-1.4155121400,-2.0982116412,-10.6665555752,-1.2630866405,,,
1.4921875000,95,-2.1990028332,-2.8311704268,-2.3710371943,-1.9126048549,-1.8540633247,-6.8881905555,-2.5270925029,-0.4717261672,9.8047879311,-9.1104201355,-1.2524933714,-2.7527620087,-8.0518627143,-1.7849741999,,,
1.4960937500,95,0.3812216182,-3.5061449545,0.0188488382,-0.7751156206,-2.2389640105,-4.0639112576,-2.7116812503,-2.6658663272,6.8987450458,-7.6026131253,0.3888152498,-1.3119691759,-2.2619228947,-0.6455732043,,,
1.5000000000,96,2.7968372890,-2.8226836322,3.1961915577,1.1803591914,-1.8517385218,-0.8290871805,-2.2865801267,-2.6205688771,7.5110222486,-5.5714337374,2.3825384029,1.6878926349,4.3954296628,1.4703094957,,,
1.5039062500,96,3.7145125414,-0.9923794019,5.4713478873,3.1221471349,-0.7179980014,1.4514196653,-1.5373297252,-0.5194143499,13.2746790632,-4.9378210483,3.5745343238,4.8694574637,9.3926529531,3.3391800343,,,
1.5078125000,96,2.7324294889,1.3633804904,5.7234703163,4.1486730811,0.9248155140,2.2220276376,-0.7381637499,2.1330622445,20.9819946701,-5.4605197332,3.5107833041,6.7277652160,11.0825253096,3.8769720473,,,
1.5117187500,96,0.5992437999,3.4060793979,3.9352173103,3.7830385841,2.6415978715,1.8426865247,-0.1493185185,3.4188075558,24.1855301220,-5.1195225683,2.5305234235,6.3611782135,9.2214738056,2.7047900162,,,
1.5156250000,97,-1.3282531808,4.3321903365,1.0431989002,2.2024598321,3.8718866321,1.2093728875,0.0211557087,2.1424404868,17.3929826763,-2.0438223521,1.2438639410,3.8283643113,4.8036070617,0.2955700705,,,
1.5195312500,97,-2.0000795752,3.6544592216,-1.7060712337,0.0869161394,4.0729933142,1.1580293696,-0.2704693263,-1.4779144469,0.1365054299,3.5864082050,-0.1022835821,0.0098489182,-0.5345173629,-2.3494244680,,,
1.5234375000,97,-1.3186621844,1.4432243364,-3.4299131440,-1.7748702096,2.9262123680,1.9862586228,-0.8098466539,-5.9164931255,-21.9101691779,9.2495128894,-1.8015284071,-3.8509213956,-5.1567141687,-4.2603284038,,,
1.5273437500,97,-0.0801760994,-1.5906063851,-3.9139210062,-2.8555423880,0.5475052223,3.3277105852,-1.1726267153,-9.1147791797,-39.6641917100,11.7244051718,-4.2275721257,-6.6260911235,-7.8547272302,-4.9300009423,,,
1.5312500000,98,0.6997083960,-4.2863061401,-3.4717693001,-3.0364022109,-2.4176604398,4.4141667200,-0.9405884694,-9.4700583753,-45.5138891795,9.4262968311,-7.1098003784,-7.6011236166,-8.0275507234,-4.3852355732,,,
1.5351562500,98,0.5384294504,-5.5034601367,-2.5978758400,-2.5163987062,-4.9394709698,4.5492120947,0.0248341183,-6.5563997500,-37.2762851615,3.6117363326,-9.2219984156,-6.5916521311,-5.7470119079,-2.9655116854,,,
1.5390625000,98,-0.2472990415,-4.6889091918,-1.7136380571,-1.6208321337,-6.0096396712,3.5029575068,1.4314860532,-1.3004731710,-18.9326337046,-2.4896977282,-8.9274814595,-3.9778661500,-1.8141797792,-1.0853094621,,,
1.5429687500,98,-0.9210866415,-2.2237190363,-1.1156398732,-0.6658162782,-5.1524743518,1.5948328207,2.6526127493,4.4079436115,1.9683037037,-5.9287320325,-5.3509034497,-0.6744646666,2.2831572680,0.8155671516,,,
1.5468750000,99,-0.9994897516,0.7058990807,-1.0052379895,0.0754432734,-2.7521346883,-0.5655071777,3.0400417193,8.4980629158,18.3663643028,-5.9326947734,0.6643359553,2.0721827028,4.7371094933,2.1998460667,,,
1.5507812500,99,-0.6465465774,2.7061437345,-1.4333637157,0.3838652355,0.0574964988,-2.4803420511,2.2763671485,9.5999896288,26.7727392836,-4.0482634195,6.6585590797,3.1440060607,4.1935716163,2.4844377170,,,
1.5546875000,99,-0.4667962029,2.9305317923,-2.1545951969,0.1746108076,1.9640589098,-4.0064119938,0.5627037139,7.6644977862,27.8888388260,-2.5514761966,9.8593052489,2.1413554996,0.6330806206,1.3517937947,,,
1.5585937500,99,-0.8888460516,1.5503597702,-2.5739716145,-0.3836004703,2.2309131538,-5.2514998309,-1.4492524185,3.9907133294,24.8904185109,-2.4840994500,8.9033418128,-0.2461108046,-4.2477349428,-0.8490323884,,,
1.5625000000,100,-1.6945795390,-0.3632969836,-1.9822907308,-0.8599532155,1.1662241704,-6.2304075300,-2.9320708579,0.5431044626,20.8017136760,-2.9299692687,4.7549793212,-2.4529975873,-7.6572484593,-3.0103214808,,,
1.5664062500,100,-2.1242416517,-1.4992402297,-0.0360188712,-0.7648766881,-0.0526936482,-6.6185012478,-3.2402168709,-1.1500904828,16.6957991550,-2.0717154767,0.0964491718,-2.8735928405,-7.2095422895,-3.7440973896,,,
1.5703125000,100,-1.4613965691,-1.0960456672,2.8673999689,0.1388376716,-0.1191841806,-5.8614031061,-2.1950951835,-0.8417223384,11.6760152631,1.0145519105,-2.3658511816,-0.8286514281,-2.3974750479,-2.1909808454,,,
1.5742187500,100,0.3846077880,0.6273469168,5.6552957772,1.6417616560,1.5741504457,-3.5953510375,-0.1680978897,0.3941683739,4.3191079115,5.3470567871,-1.4993344405,2.9832113253,4.9570846341,1.3895765152,,,
1.5781250000,101,2.7150377625,2.6303864594,7.0809746598,3.1437724769,4.4921212838,-0.0933701522,2.0599793310,0.8963846377,-5.5818027591,8.4254107486,1.6715244280,6.7926611493,11.5266181974,5.5953555825,,,
1.5820312500,101,4.4097155297,3.6906235033,6.3790409682,3.9358212331,7.1416726301,3.6357566682,3.5998343227,-0.5153797368,-16.1728144642,7.7365837585,4.6636811033,8.6377244690,14.1205239657,8.4651017869,,,
1.5859375000,101,4.6011356423,3.1510253618,3.7164875746,3.5642288963,7.8368523914,6.2966987506,3.8194811121,-3.7106765527,-24.1767814479,2.5589119950,5.1114235855,7.3876399712,11.3466849574,8.4567613094,,,
1.5898437500,101,3.2092171721,1.3113153413,0.1660276829,2.0724822233,5.6461985276,7.0364546515,2.6267684264,-7.1870940940,-26.6166007712,-5.1788657683,2.2394237142,3.3599159149,4.3851538739,5.3041654637,,,
1.5937500000,102,0.9829009097,-0.7780721615,-2.8155000797,-0.0192194822,0.9654502942,5.9328804110,0.5160988774,-8.8795998950,-22.5379315244,-11.7239891360,-2.6916333269,-1.8328797721,-3.6081714698,0.2184484780,,,
1.5976562500,102,-0.9782602338,-1.9761189272,-4.1413139502,-1.9690626103,-4.6160243642,3.9506337601,-1.6565256842,-7.3565656324,-13.7106267735,-13.4739436868,-7.1758065485,-6.0974674394,-9.1390306856,-4.6965424130,,,
1.6015625000,102,-1.9090908123,-1.7565385612,-3.6565022806,-3.1505991016,-9.0672886102,2.3667308393,-3.0655445249,-2.7122795368,-3.8092810461,-8.9222471609,-8.9548502774,-7.8719983773,-10.1632059135,-7.4973097334,,,
1.6054687500,102,-1.8039052827,-0.5201249228,-2.1462202599,-3.3031187063,-10.8639129185,1.9413464997,-3.2865002413,3.3390272289,3.5954985932,0.4111455791,-7.3045241553,-6.8144905830,-7.0605917161,-7.3544442027,,,
1.6093750000,103,-1.3245415514,0.6769834596,-0.7979542219,-2.5911273767,-9.6457088122,2.3711110309,-2.4523154856,8.2528473959,6.9627034464,10.5881905450,-3.3603512381,-3.8423966559,-2.2688663682,-4.8834965251,,,
1.6132812500,103,-1.2950141285,0.7950773129,-0.4794951391,-1.4656095767,-6.2794889005,2.4414153658,-1.1227250864,9.9169619780,7.3706954280,17.1387771142,0.6511998072,-0.5551971605,1.1766155569,-1.6925483349,,,
1.6171875000,103,-2.0751422157,-0.5194818483,-1.2274517247,-0.4110521993,-2.3010148167,0.8419946800,0.0300173882,7.7003404392,7.5656443547,17.1934173095,2.7697315818,1.6166008846,1.3767685566,0.5731917466,,,
1.6210937500,103,-3.1895070602,-2.6570811331,-2.2230028831,0.2775280409,0.9560555171,-2.7802829336,0.5424403473,2.7417210808,10.0538410357,10.7690587703,2.4304561334,2.0837691654,-1.3618062499,1.1412817540,,,
1.6250000000,104,-3.5395672402,-4.3528831241,-2.3261925282,0.5638381973,3.0121489518,-7.1881644032,0.3510095893,-2.6494987742,15.1768337785,0.6689517148,0.6821467322,1.2583069040,-4.7470259182,0.4464667255,,,
1.6289062500,104,-2.1621056326,-4.4313569086,-0.8803336112,0.5814311130,4.2704339474,-9.9368567208,-0.2125871188,-6.1410487160,20.3563010100,-8.8728421819,-0.6241420877,0.1657685058,-5.9274336542,-0.2964851429,,,
1.6328125000,104,0.9628331679,-2.5412353860,1.7514658113,0.4978997105,5.4421254887,-8.7972187013,-0.6122451625,-6.4549382413,21.2922688543,-14.1360935429,-0.1116916942,-0.2125980570,-3.2830645276,0.0229327272,,,
1.6367187500,104,4.6623013396,0.5817502305,4.3088652378,0.4377088295,6.8066634371,-3.4150152320,-0.4004287114,-3.8383974249,14.6617694575,-13.5397678690,2.2277568337,0.5245700387,2.5105203061,1.6556521821,,,
1.6406250000,105,7.1147159540,3.4929368401,5.3519799493,0.4678681668,7.8594859386,3.9972869612,0.5229600046,0.2167279397,0.6560713980,-8.2032169939,5.0544918009,2.0369909184,8.7729879864,3.8230978590,,,
1.6445312500,105,6.8716144246,4.8490811785,4.1072170516,0.5886210140,7.6159733151,9.6696784017,1.8164816008,3.7146424341,-16.4814689940,-1.2116820561,6.5073694842,3.4429901765,12.2493360320,5.1732972704,,,
1.6484375000,105,3.7289948711,4.1909019420,0.9336237673,0.7211051346,5.3556918783,10.5254046411,2.8343028026,4.9575754138,-30.4636892407,4.0236508011,5.2926260015,3.7359734075,10.8623314031,4.5610493268,,,
1.6523437500,105,-1.0826553436,2.1794844808,-2.8113901524,0.7473124245,1.2650477167,6.0826069822,2.9681763023,3.2784972696,-36.0534302019,5.4740910536,1.5073894811,2.3324103356,4.9222894708,1.7845648756,,,
1.6562500000,106,-5.5158018888,0.0777807515,-5.4237979860,0.5970589392,-3.4855239376,-1.4140102295,2.0239394632,-0.4750891014,-31.1689579367,3.3349376088,-3.2234046110,-0.4444226218,-2.8640015329,-2.1100490012,,,
1.6601562500,106,-7.7732491703,-1.1291329882,-5.7302038001,0.2849081102,-7.2832841186,-8.5116928851,0.3671859767,-4.2182358237,-17.2805097188,-0.4757473371,-6.5579830593,-3.3769462290,-8.7957238966,-5.2928402300,,,
1.6640625000,106,-7.1976399798,-1.2959861431,-3.7262748366,-0.1396705338,-8.8743728337,-12.3996865643,-1.2799494519,-5.7735489067,1.4136119105,-3.7077897260,-6.8448206349,-5.0266613246,-10.2828326625,-6.2244427572,,,
1.6679687500,106,-4.4819703950,-1.0029610238,-0.5562570876,-0.6416467580,-7.9394439202,-11.9541671317,-2.2385826322,-4.1459951625,19.4433528905,-4.9975971845,-4.1726235155,-4.6200618831,-7.2845203207,-4.6104478584,,,
1.6718750000,107,-1.1289003556,-0.9517871292,2.1915767650,-1.1668242740,-5.1501817363,-7.7274311954,-2.2064655411,-0.0489589902,31.7251110106,-4.1659250153,-0.2898001078,-2.4942777700,-2.1284518669,-1.5402243253,,,
1.6757812500,107,1.4628713754,-1.3799926977,3.4210892813,-1.5636168066,-1.7477110144,-1.3068583750,-1.3551726978,4.5852412947,35.0369682001,-1.7059999995,2.5651644473,0.1908640583,2.1108588239,1.2782010234,,,
1.6796875000,107,2.7093495517,-1.9165727334,3.0746984499,-1.5849996101,1.0603612983,5.4023874665,-0.1883698202,7.6768319365,28.9398272692,1.8277621428,3.1073106190,2.2192495008,3.5470469451,2.6226303001,,,
1.6835937500,107,2.9474769738,-1.9284331671,1.9607518972,-1.0368361066,2.5578236371,10.6782943071,0.7224697650,7.9504799939,15.8320150841,5.9412593314,1.7304557616,2.9990646852,2.4590317845,2.4246741460,,,
1.6875000000,108,2.9563678708,-1.0435693314,1.0665214021,0.0230622087,2.6795280428,13.2722667200,0.9837911911,5.3114896590,0.0239251205,9.8645013595,0.0536469664,2.7232852510,0.7538750385,1.5901344342,,,
1.6914062500,108,3.2939271348,0.5625774288,0.9039989316,1.2293242796,1.9097824263,12.6224528793,0.5170649994,0.6593475301,-13.9009985820,12.3004173365,-0.3438247265,1.9945458245,0.3953159617,1.1898328637,,,
1.6953125000,108,3.9264061133,2.3062469617,1.3137718854,2.0949654362,1.0000345250,9.0527976468,-0.4305201738,-4.5262829614,-22.7113086175,11.7713660689,0.9077633367,1.2775518955,1.9240868486,1.6505264163,,,
1.6992187500,108,4.3467142874,3.5773910313,1.7255919381,2.3027602711,0.5705447917,3.8025148472,-1.3909589036,-8.5925586860,-25.3176346493,7.5123507367,2.7183140791,0.6194686743,4.0842432372,2.5006339039,,,
1.7031250000,109,3.9956863555,4.0157796229,1.5767642438,1.8580267532,0.7595088634,-1.3637621584,-1.8775205996,-10.1601511131,-22.4539958702,0.2614492799,3.3740717299,-0.1881873137,4.7869319885,2.7796677182,,,
1.7070312500,109,2.6476911887,3.5324673265,0.6230089853,1.0196455929,1.1829628737,-4.9215429477,-1.6129001096,-8.6095642803,-15.7001920970,-7.7277184842,1.8335060927,-1.2164703818,2.6913268020,1.7677941661,,,
1.7109375000,109,0.5362540256,2.2132019786,-0.9505881032,0.1268334077,1.3159607964,-6.2802723558,-0.6646810067,-4.3777570963,-6.6318105775,-13.5908013597,-1.4607140569,-2.1598409206,-1.7268268085,-0.4666919734,,,
1.7148437500,109,-1.7969126902,0.2819899115,-2.6121676211,-0.5466151410,1.0373510543,-5.9278001323,0.5917486213,1.1434364096,3.3427101786,-15.2160252500,-4.8161801889,-2.4802260154,-6.3425449608,-3.0366159181,,,
1.7187500000,110,-3.7857548749,-1.8659737551,-3.7226780422,-0.8726415912,0.8425877425,-4.9380742312,1.6583584241,6.0895167942,12.5645782659,-12.3081493145,-6.3879395574,-1.8302824226,-8.6580318371,-4.7250388044,,,
1.7226562500,110,-5.0680530912,-3.6841305353,-3.8447807904,-0.8933517126,1.4249073241,-4.2179424596,2.1374787699,8.7908014189,18.8462233682,-6.5196905722,-5.3629568981,-0.4065538997,-7.3399904542,-4.6918481279,,,
1.7265625000,110,-5.5431063306,-4.6249032663,-2.9673670025,-0.7862814881,2.8799072577,-4.0250284360,1.8839256166,8.3893013080,20.0184199215,-0.5207081187,-2.4067200083,1.0811781545,-3.0142634318,-2.9654369714,,,
1.7304687500,110,-5.2745832430,-4.3627569345,-1.5054443646,-0.7629682517,4.2335970653,-4.0295689749,1.0456186741,5.1984352843,15.2220673538,3.4821728755,0.9088451878,1.8411673269,2.1733596856,-0.4152282037,,,
1.7343750000,111,-4.3544828381,-2.9622635269,-0.0640456147,-0.9297742219,3.8659717805,-3.7590689652,0.0030193489,0.6407774133,5.9880833100,4.8798134265,3.2188659987,1.5239206128,5.8852134832,1.7685846340,,,
1.7382812500,111,-2.8510680646,-0.8975843105,0.8910187876,-1.1909470961,0.7078776165,-3.0062073012,-0.7747147564,-3.2976640055,-3.9880226435,4.7248185913,4.1588890780,0.4471310050,6.8949416852,2.7436879375,,,
1.7421875000,111,-0.8761745533,1.0999047403,1.2532030077,-1.2847463810,-4.6354749031,-1.8774917847,-0.9275722149,-4.9464782706,-10.5967049808,4.6960988684,4.2797610150,-0.6443905301,5.5417234207,2.4089286140,,,
1.7460937500,111,1.3042355607,2.3223122951,1.2559568660,-0.9676913201,-9.7970846993,-0.5131656577,-0.3884993533,-3.7780772772,-11.5750827399,5.6929623477,4.2583514315,-1.1011066173,3.1518489382,1.3065609613,,,
1.7500000000,112,3.2371014958,2.3818589306,1.2356859305,-0.2316206641,-11.8823273137,1.1824022049,0.5398158615,-0.7254629031,-7.7239457409,7.0630845942,4.1296607265,-0.7950474417,0.9510259695,0.1558518690,,,
1.7539062500,112,4.3946555861,1.3743184351,1.3425594147,0.6256450682,-9.3091520915,3.4624794078,1.2797981351,2.2595351782,-2.2032808890,7.0369328641,3.2030067195,-0.1608043764,-0.7169977374,-0.6261828976,,,
1.7578125000,112,4.3969419316,-0.1810138138,1.4130424666,1.1640858266,-2.9889525674,6.3006549712,1.2392547618,3.2479262858,1.5808620592,4.0924339143,0.7385202909,0.1538758221,-2.3336436098,-1.0832650213,,,
1.7617187500,112,3.2334387315,-1.5771670020,1.1191255328,1.1011877726,4.0510957736,8.9736979459,0.1455046645,1.4375103071,1.9884687775,-1.6915357924,-3.1585856611,-0.2260514275,-4.4160625663,-1.4762195151,,,
1.7656250000,113,1.3660564513,-2.1834238902,0.3093071420,0.5313487966,8.4446863363,10.1439456213,-1.7120234454,-2.3187456584,-0.2711428298,-8.2515908827,-7.1539200785,-1.0975964134,-6.6526524713,-1.8585588469,,,
1.7695312500,113,-0.3650056673,-1.6208034347,-0.7116004509,-0.0963410029,8.5104111861,8.5783164994,-3.5062087198,-5.9156595887,-3.1451352521,-12.4571268615,-9.1891942120,-1.7397171442,-7.7040447222,-1.8389042577,,,
1.7734375000,113,-1.0575320642,0.1487351647,-1.2258504270,-0.2368060489,5.1773849454,4.0928861017,-4.2293645920,-7.1529250723,-4.8246613343,-11.8264961447,-7.6473823954,-1.3186209883,-5.9528627549,-0.7826868191,,,
1.7773437500,113,-0.2176364169,2.7538597776,-0.5419934254,0.4022344012,1.2153852532,-1.9827121337,-3.2419409181,-4.9988547452,-4.6583851509,-6.0415439960,-2.4837197286,0.5569504968,-0.7852134158,1.6195494563,,,
1.7812500000,114,1.8337281178,5.3772022950,1.4011309651,1.6191212728,-0.6796229651,-7.2803605234,-0.7015245395,-0.2145571523,-2.9085993665,2.6325821459,4.4138915087,3.4293993810,6.4833232694,4.8207443201,,,
1.7851562500,114,3.9308482993,6.8885751936,3.7139633173,2.7456614696,0.3517899019,-9.6269976958,2.4195663031,5.0391546037,0.0729505473,10.3124162716,9.9625320309,6.0201448178,12.8104774380,7.3998262468,,,
1.7890625000,114,4.5841930538,6.2660521042,4.8785232748,2.9774830730,2.8773425236,-8.2918135588,4.7859846343,8.3729317244,4.2377324689,13.3907581426,11.4088065352,6.7920997217,14.8511861060,7.7268287066,,,
1.7929687500,114,2.8520123009,3.1840221207,3.6453078061,1.8527370617,4.2838915788,-4.4277388691,5.3804523330,8.4173257841,9.3319151131,10.3996026281,7.8276952463,4.8226340962,10.8645679308,4.9636098444,,,
1.7968750000,115,-0.9735719109,-1.6032160462,-0.0461292097,-0.4111427107,2.6746962847,-0.3715187389,4.0220320846,5.4383856746,14.0348083737,2.8524515251,0.7309509312,0.4851047747,1.9484779854,-0.2684210674,,,
1.8007812500,115,-5.3712203690,-6.4267128773,-4.7961796820,-2.9590121999,-1.7280781773,1.7893753057,1.4264663060,1.0361113551,15.8337064789,-5.4484260756,-6.6172094051,-4.5487482540,-8.2360596794,-6.0500829867,,,
1.8046875000,115,-8.3531462138,-9.4243343250,-8.3944583539,-4.7163991702,-6.6139288149,1.4611928136,-1.2079504311,-2.8034085673,12.2228014463,-10.3659250020,-10.8471276262,-8.0933377579,-15.2047558490,-10.0928879347,,,
1.8085937500,115,-8.5297542547,-9.4450173739,-9.0145489007,-4.9372292223,-9.0401013686,-0.2350197520,-2.8267203929,-4.7087669589,2.6468575087,-9.6467960524,-10.1986978585,-8.6118853164,-15.9207982500,-10.8610130541,,,
1.8125000000,116,-5.8201414712,-6.6195536818,-6.2059613937,-3.5634458106,-7.3614893202,-1.4313662431,-2.9963513431,-4.4526454328,-10.2566846206,-4.1449127180,-5.3604485983,-6.0588558154,-10.3361975603,-8.2387394409,,,
1.8164062500,116,-1.4240041569,-2.2569024096,-1.1157186673,-1.2175399351,-2.3305000979,-0.9743975512,-2.0041928582,-2.8304202270,-21.3758947193,2.7774915417,1.0169146227,-1.8586813359,-1.3586939685,-3.4634257762,,,
1.8203125000,116,2.8416133925,1.8724845815,4.1151470956,1.1317061115,3.3904639897,0.7558530820,-0.5940741125,-1.0697252637,-25.7190674249,7.3628485622,5.8201805453,1.9689829348,6.7251585100,1.5191706935,,,
1.8242187500,116,5.4104585474,4.4216703433,7.4014511546,2.6323823898,6.9141000749,2.3161798975,0.4721046269,-0.1275298975,-21.2373655734,7.6508656041,7.0958729715,3.9446375986,10.4900114547,4.9228593131,,,
1.8281250000,117,5.5924621251,5.0113916459,7.6625879852,2.9053848436,6.7942014272,2.5019916796,0.7886473712,-0.2073470558,-9.9230837174,4.2973093984,4.8959037841,3.8044317112,9.0263596498,5.8498604803,,,
1.8320312500,117,3.7249157432,4.1986016652,5.2222991854,2.1394356274,3.6191686081,1.3583878609,0.4374475738,-0.7140362358,3.4780787203,-0.3164434039,0.9810442544,2.3857956294,4.1151294654,4.5873579736,,,
1.8359375000,117,0.8847143488,2.9796537485,1.5086637547,0.9185190020,-0.6373376474,0.1197385790,-0.1644367693,-0.6957684760,14.1092317068,-3.8286587026,-2.3237219049,0.9175469325,-1.0911711644,2.3371335510,,,
1.8398437500,117,-1.6484563772,2.1460580466,-1.7507196445,-0.1050756269,-3.8673070373,0.1963457891,-0.5802625770,0.4286925877,19.2110339250,-5.2357052205,-3.4272875740,0.2127202961,-4.0110183785,0.4987157233,,,
1.8437500000,118,-2.9473351075,1.8523449398,-3.3991726876,-0.5255965975,-4.8455846248,2.0107614254,-0.6192568591,2.3127305548,18.7056923576,-5.0420423268,-2.2181111314,0.2487610032,-3.9730637622,-0.1054927983,,,
1.8476562500,118,-2.7779933100,1.6463499325,-3.3145672437,-0.3280012149,-3.5559075684,4.5295414037,-0.3891841033,3.7647695213,14.2725107214,-4.3519205107,0.1120228986,0.3609681365,-2.1544012372,0.4157681125,,,
1.8515625000,118,-1.5575176090,0.9533093201,-2.2205201633,0.2121244647,-0.8851683583,5.8209105151,-0.1361861545,3.5542039833,7.9704831613,-3.7358741607,2.0022106138,-0.0974617693,-0.3049339584,1.3228487511,,,
1.8554687500,118,0.0378973483,-0.3187350579,-1.0063488778,0.7882206757,1.9607919131,4.2870719987,-0.0220185471,1.4282170001,1.4171496563,-2.7635425199,2.5871168692,-1.0925676061,0.6975479579,1.9493575742,,,
1.8593750000,119,1.5268865424,-1.5447914623,-0.0667830798,1.2697976004,3.9641925918,-0.2120720572,-0.0128022507,-1.4781885222,-4.2481312903,-0.5232772735,2.1673004452,-1.7714029229,1.3387734381,2.2101464775,,,
1.8632812500,119,2.7875304965,-1.7968141762,0.8211221062,1.6843304572,4.5394595481,-6.0671835273,0.0500340531,-3.3022987010,-8.1193616744,3.3190717740,1.7557120866,-1.0605500927,2.6705009207,2.4560593840,,,
1.8671875000,119,3.8293207283,-0.6641773827,1.9931724206,2.0067880916,3.5351203109,-10.6727225901,0.2740431291,-2.8076944953,-9.5744851071,7.7920255812,2.0528280506,1.3536438039,4.9518707933,2.8134186161,,,
1.8710937500,119,4.4377022764,1.1790758296,3.2391537439,1.9834443185,1.1530272095,-11.7952747279,0.5979988093,-0.4044867651,-8.6682621486,10.8679842858,2.6824559397,4.4225538746,6.9506835727,2.6877029852,,,
1.8750000000,120,4.0978697208,2.2247996219,3.6583037323,1.2112276382,-2.0664635089,-8.7581922711,0.8411384174,2.0367013075,-6.3748858372,10.6148677149,2.3693137361,6.1160047724,6.6141836380,1.0487144504,,,
1.8789062500,120,2.3595870652,1.1452291500,2.2808991308,-0.5252390865,-5.2103249760,-2.7715496589,0.8683956634,2.5236040801,-4.1984712311,6.4740425736,0.0002801616,4.6949729665,2.6778124373,-2.5891470043,,,
1.8828125000,120,-0.6282382460,-2.1417941505,-0.9995486187,-2.9126042414,-7.1005475378,3.7378284405,0.6992832430,0.4275776503,-3.2339872434,-0.2491054247,-4.2504714129,0.0423343937,-4.0593351189,-7.3164989435,,,
1.8867187500,120,-3.9100450862,-6.1901494899,-4.9963590398,-5.0847269066,-6.7077547544,8.3586691904,0.4387386468,-3.0434360833,-3.3448534122,-7.0408692749,-8.6799647343,-5.9522776166,-10.8741940894,-10.9778814944,,,
1.8906250000,121,-6.1221954804,-8.8001359221,-7.7624683954,-6.0261984489,-3.7607560606,9.7729048158,0.1020163184,-5.7335063393,-3.1719102402,-11.5140183651,-10.9809797520,-10.3447330415,-14.6599209858,-11.4130284365,,,
1.8945312500,121,-6.2796605238,-8.3397225003,-7.7695303437,-5.1722836694,0.8556431840,8.1374440971,-0.4563179833,-6.0503196119,-1.1170524010,-12.5067057646,-9.6911447539,-10.8525777314,-13.7564500093,-7.9361835010,,,
1.8984375000,121,-4.3883760673,-4.7205889690,-4.8841613426,-2.7846316630,5.3234995409,4.7035135013,-1.3818520061,-3.9234006513,3.3124674449,-10.2966341658,-5.1146930026,-7.1916704605,-8.7772634165,-1.9208807971,,,
1.9023437500,121,-1.4350952564,0.5814854103,-0.4445620713,0.1798267774,7.7552706528,1.0352956105,-2.5399398020,-0.5797519384,8.7638082310,-6.0070172739,0.9074176844,-1.1587315198,-1.9769430971,3.9873585050,,,
1.9062500000,122,1.2192144773,5.4007367292,3.5786506091,2.6203953640,7.2145309862,-1.6889395012,-3.3890631292,2.4950582135,12.5244147665,-0.8467142151,6.1286124332,4.5231116296,4.1951597494,7.4687718101,,,
1.9101562500,122,2.5943861029,8.0386658738,5.7194828413,3.8786088434,4.2239321706,-2.9950937685,-3.1976270676,4.4785424917,12.0485063038,4.2164105104,9.0836821911,7.7561841918,8.2616757329,7.8103639031,,,
1.9140625000,122,2.5111633688,8.0123067413,5.7116496211,3.9849753339,0.4120190782,-3.0491834663,-1.5205016465,5.3750823019,6.6179109542,8.2994486867,9.5887521955,8.0215833737,9.9710249970,6.0560051082,,,
1.9179687500,122,1.5040024451,6.0582699119,4.3942929872,3.4729573572,-2.4562652265,-2.3982099243,1.3840648499,5.5435243815,-1.9248732380,10.4302030933,8.4160912889,6.2771135350,9.8277380753,4.0709140513,,,
1.9218750000,123,0.4013956817,3.5352646442,3.0224937782,2.9521411602,-3.4111270993,-1.6904966369,4.5199108232,5.1974720053,-9.9167545514,9.8119956490,6.5667774301,4.0814717713,8.5223131871,3.2736492356,,,
1.9257812500,123,-0.1202835055,1.6486932021,2.4837853528,2.7250796134,-2.5937666213,-1.4283969523,6.5865514476,4.3285410621,-13.7474611106,6.4640457585,4.6891623875,2.6182372609,6.6700174523,3.8710982246,,,
1.9296875000,123,0.1988224361,0.9020620306,2.8624479468,2.6477931927,-0.8636894783,-1.7503046102,6.6495546216,2.9721349562,-11.8015090552,1.6432635534,2.9140077879,2.1706629092,4.7861057743,4.9514275666,,,
1.9335937500,123,1.1588011136,0.9776824914,3.5078183207,2.2834677153,0.8879841948,-2.3088605171,4.6363843626,1.3947783566,-5.3036679934,-2.5356712053,1.0283916426,2.1973880720,3.2130152877,5.1949751628,,,
1.9375000000,124,2.2231936032,1.0361944802,3.4807946425,1.2483381466,2.1663603140,-2.3819826237,1.3487059393,-0.0623141713,2.4601141179,-4.2397120764,-1.2261592130,1.8180103611,1.9278340850,3.6755525936,,,
1.9414062500,124,2.7558488764,0.2761978337,2.1131939498,-0.4605281339,2.8094117343,-1.2636196566,-1.9900463436,-1.3067448568,8.0701443928,-3.0597051030,-3.8705428326,0.3961401423,0.4764333819,0.3383557443,,,
1.9453125000,124,2.3294230025,-1.5098140045,-0.5805489545,-2.3717674853,2.6773493382,1.2404817228,-4.3306369824,-2.5721812027,9.8514330320,-0.2654979797,-6.4833480833,-2.0476706283,-1.7111450336,-3.9645959664,,,
1.9492187500,124,1.0012010822,-3.6995300769,-3.8238974817,-3.7643972445,1.5264934882,4.5247746286,-5.1749293454,-4.0755225285,8.5515001224,2.0785789634,-8.1889969246,-4.7692277526,-4.7349730138,-7.7998353505,,,
1.9531250000,125,-0.6361237427,-5.1438706343,-6.4077691129,-4.0886811787,-0.7566852008,7.3163625396,-4.5975890850,-5.5671924469,6.4439383090,2.4872674423,-8.0001200875,-6.6487624641,-7.8585542531,-9.7191355594,,,
1.9570312500,125,-1.7757695388,-4.9236251553,-7.3351361158,-3.3232952107,-3.7993637744,8.1887115929,-3.0469360166,-6.3012049093,5.4801656258,0.8810805951,-5.4989954104,-6.8441730233,-9.8073244974,-8.9295789619,,,
1.9609375000,125,-1.9788425263,-3.1049447760,-6.4593258453,-2.0327602952,-6.6554412899,6.2208616814,-1.1404710185,-5.6042528343,5.7144647668,-1.6909633097,-1.4713747070,-5.4054077771,-9.6473107116,-5.8137370428,,,
1.9648437500,125,-1.6012487478,-0.9070081605,-4.6680407477,-1.0571308327,-8.1486804235,1.5197757707,0.4589936613,-3.6055762959,5.0931408038,-4.0704352075,2.1056380622,-3.3950173312,-7.5767090374,-1.9414773312,,,
1.9687500000,126,-1.6280095913,-0.0090071338,-3.3534008209,-0.9904287940,-7.4475978186,-4.6255989360,1.1617215509,-1.4129132622,0.8838610347,-5.8285893614,3.0233356842,-2.2815984348,-4.9045412878,0.6388241741,,,
1.9726562500,126,-2.8860349273,-1.3485757086,-3.4065483154,-1.7652984655,-4.5125849948,-10.0902329958,0.6538693573,-0.4095248721,-8.0455808998,-7.2526620440,0.3271725369,-2.8889511412,-3.1016100909,0.5869500303,,,
1.9765625000,126,-5.1687862655,-4.2421563917,-4.4291436167,-2.6390329642,-0.1732454368,-12.7168099101,-0.8658883074,-1.1150634095,-19.5748347038,-8.5971774090,-4.6826835909,-4.6197486302,-2.6114840308,-1.7655812489,,,
1.9804687500,126,-7.0140045044,-6.5562617245,-4.8247616426,-2.6377762347,4.1766536948,-11.2920919129,-2.6125337776,-2.5292238676,-28.5885313241,-9.3532973963,-8.8239539140,-5.6074049878,-2.3959374543,-4.4031169960,,,
1.9843750000,127,-6.4742215342,-5.9675967279,-2.8435620846,-1.1960795637,7.1203290696,-6.2219477312,-3.4816470263,-2.6030235605,-29.3581736806,-8.2587377615,-8.7864920362,-3.8408421968,-0.6677333643,-4.7474841609,,,
1.9882812500,127,-2.4749402947,-1.5504045713,2.0756059343,1.4293698505,7.7892493282,0.5239587082,-2.6140284550,0.3578071607,-18.8984954173,-4.1434992370,-3.2470238665,1.4133695390,3.6587292664,-1.3090334042,,,
1.9921875000,127,4.1625178248,5.3755820348,8.6131995059,4.2514559706,6.2400118338,6.2776011763,0.0521294000,6.2925814109,0.6545795209,2.9879598363,6.0554077810,8.8436921715,9.8501730770,5.1888499142,,,
1.9960937500,127,10.8279970506,11.7683376109,14.0782487802,6.0925274247,3.4413296217,8.9425451954,3.6241751115,12.9915741132,22.2577797282,11.4620677518,15.0717268107,15.5436298436,15.4237898185,12.0044517978,,,
2.0000000000,128,14.4279207102,14.5037661321,15.8628137356,6.2292994877,0.8176185586,7.9796194152,6.6500390365,17.0719126450,36.9976049783,18.4591466528,19.6216576610,18.4622760560,17.4479332435,15.8485030662,,,
2.0039062500,128,13.1270074795,12.1445142359,12.9426938350,4.7519790159,-0.4619445465,4.5646864096,7.8532414445,15.8136936605,38.5120898506,21.2899281954,17.6666173176,16.0123589175,14.2856019397,14.7475143991,,,
2.0078125000,128,7.4242557049,5.7568903331,6.4842808025,2.4467460797,-0.0683791157,0.8618322343,6.7675962612,8.8083398404,26.3929112876,18.6772911463,10.3043063384,8.9152418112,6.6881512633,9.1453285938,,,
2.0117187500,128,-0.1256177794,-1.7051654691,-0.8100739391,0.3070312981,1.3720243216,-1.1406089465,3.9056792583,-1.5537146118,6.5552948329,11.3311104310,0.9597445232,-0.1638536546,-2.4601139941,1.5736997350,,,
2.0156250000,129,-6.3519377344,-7.0433608422,-6.1935427394,-1.0146690808,2.6895457823,-0.5825170960,0.4027633513,-11.1182539565,-11.8029653179,1.5737775964,-6.6191041715,-7.9460317913,-9.6256609651,-4.8603857713,,,
2.0195312500,129,-9.1489858773,-8.4819016310,-8.2859641709,-1.4958415851,2.8275575957,1.9806928300,-2.5989645827,-16.0492699023,-21.0419584837,-7.6925451682,-10.2864557846,-12.0945171232,-12.4747211006,-8.1900980549,,,
2.0234375000,129,-8.3974446690,-6.4090147020,-7.5902976337,-1.6340038815,1.3323342017,4.9912185054,-4.4400002140,-14.8397032092,-18.9653019504,-14.1261141371,-10.2594320957,-12.1922184136,-11.0041038820,-8.4589556435,,,
2.0273437500,129,-5.6758294975,-2.8575104323,-5.8696606227,-2.0292562120,-1.5442212811,6.6831428680,-5.0641616707,-9.0598970327,-9.4796137805,-16.6907167425,-8.4353868531,-9.6480099086,-7.2813290207,-7.2810583219,,,
2.0312500000,130,-3.0772207728,-0.1486463791,-4.8379866543,-2.9206601188,-5.0437347340,5.8472069937,-4.8028530492,-2.3409832732,0.2680383135,-15.7431576049,-6.8651138323,-6.6192605871,-3.9802441741,-6.4821190065,,,
2.0351562500,130,-1.9572558593,0.4109140477,-5.0767399999,-3.9911656100,-8.2234031665,2.2877082309,-4.0560855794,1.7440777795,4.2979305049,-12.5614908830,-6.4612671670,-4.6984657344,-2.7378722738,-6.8389150635,,,
2.0390625000,130,-2.3453174017,-0.9542753068,-5.8521758328,-4.5706085641,-10.2574332319,-3.1435050973,-3.0891688439,1.5775712439,0.9965528245,-8.6306612016,-6.7000786797,-4.1827100835,-3.3868229954,-7.7366663715,,,
2.0429687500,130,-3.1873391398,-2.8718837979,-5.7489978972,-4.0493852955,-10.5653410753,-8.8962053849,-1.9959600065,-1.7945034101,-6.4860976993,-4.9490591936,-6.2270683377,-4.1287531170,-4.3204189457,-7.7171006099,,,
2.0468750000,131,-3.1168422448,-3.7275988329,-3.6079880296,-2.2296457715,-8.7629359669,-13.2514080703,-0.7594683249,-5.3778313882,-12.5054844313,-1.6173044841,-3.8113778810,-2.9948740457,-3.5995774540,-5.3990628918,,,
2.0507812500,131,-1.2947253286,-2.5841544611,0.7009068183,0.5271699644,-4.6779318511,-14.8095747040,0.6568903085,-5.9793606339,-12.4398195037,1.9890291231,0.8393756858,0.3697283939,-0.2060931994,-0.3263546509,,,
2.0546875000,131,2.1031421686,0.3229200781,6.0250897322,3.3978739169,1.3771970756,-12.8528921741,2.2118010003,-2.0867394393,-5.4564352648,6.4435528238,6.7447518339,5.8080768033,5.2169734327,6.5769644833,,,
2.0585937500,131,5.9694774835,3.7326895621,10.3668913047,5.4117874618,8.2369123074,-7.5752763652,3.6993753530,5.1695050468,5.0318311590,11.3771459735,11.9738135333,11.5902382121,10.5998595516,13.1708123983,,,
2.0625000000,132,8.8274434980,6.0422811548,11.8412067035,5.8544709095,13.8619155465,-0.1241184126,4.7213507564,12.5467840504,13.4327986751,15.1881547230,14.5083899529,15.1213143673,13.5596208305,16.8954442932,,,
2.0664062500,132,9.5314451384,6.1351514777,9.6496239460,4.5733939733,15.9923496384,7.6352009084,4.7811950252,16.4164622728,15.2923924471,15.7281997653,13.2096118383,14.3261471036,12.7076713078,15.8982257457,,,
2.0703125000,132,7.7401084275,3.9066437764,4.5120847533,2.0448576332,13.3049550669,13.6305187155,3.5123647533,14.6752566829,9.8639781213,11.6328224898,8.3504326412,8.8954331050,8.3171380629,9.9675490206,,,
2.0742187500,132,3.9838281262,0.2621100090,-1.6799912224,-0.8143826547,6.4054190900,16.2164005769,0.9541591053,7.7792075659,0.4304826093,3.4550170748,1.4469713860,0.6069444499,1.9854683793,0.8060050590,,,
2.0781250000,133,-0.6065489166,-3.3132636695,-6.7432534029,-2.9953571836,-2.0814544789,14.6993169818,-2.2867683972,-1.5512634295,-7.6985719565,-6.1749668045,-5.4274253866,-7.4806171737,-4.3331455928,-8.5159367092,,,
2.0820312500,133,-4.7136714554,-5.3435219132,-9.0915599369,-3.7651690427,-8.5819175314,9.5739908750,-5.1386445252,-9.6289789672,-10.1969710834,-13.5689409845,-10.3994356550,-12.4643935678,-9.1631882349,-14.7156309054,,,
2.0859375000,133,-7.2221183626,-4.8933088975,-8.2182905478,-2.9300541724,-10.3355320546,2.3996194057,-6.4628336594,-13.3721688726,-5.9544100936,-15.6924747624,-12.2863717621,-12.8522376603,-11.7279040972,-15.6065105062,,,
2.0898437500,133,-7.5143545359,-1.9458223690,-4.6953161395,-0.9103285538,-6.8903945505,-4.6630244465,-5.5998675395,-11.5113899522,2.6008541482,-11.6723919257,-10.7876247331,-9.0477673517,-11.7097992015,-11.0386904967,,,
2.0937500000,134,-5.6612118201,2.4495937196,0.1304847561,1.4000996080,-0.4442329544,-9.5465002248,-2.7712176172,-5.0820714656,11.0259127564,-3.2905890698,-6.5153487142,-2.9825776232,-9.0783662690,-3.0552722111,,,
2.0976562500,134,-2.4533729133,6.4037936249,4.5606668731,2.9583585796,5.2453476552,-10.9898787769,0.9369160284,2.9280867664,15.2185406952,5.8150279980,-0.9045482481,2.7941264470,-4.2812643527,4.8910376324,,,
2.1015625000,134,0.8320653581,7.8930996829,7.0436949559,2.9964194014,6.8522794173,-8.9850261250,4.0577112321,8.7451759962,13.3363414065,11.8364396128,4.1279405654,6.1517277869,1.4594055782,9.4262182987,,,
2.1054687500,134,2.9712447615,5.7971687265,6.7423054889,1.4009892560,3.3096556977,-4.7310005926,5.4448174175,9.4882507405,6.4346406819,12.4991011865,6.8759755888,6.2097011329,6.2939423131,8.8459174026,,,
2.1093750000,135,3.4230410613,0.7526796386,3.9765695653,-1.1537849200,-3.5551109660,-0.0764345918,4.7897261890,4.6838055157,-2.3109496411,7.9330303452,6.6735785133,3.6823691745,8.5605543760,4.0297328577,,,
2.1132812500,135,2.5549111965,-4.9054983011,0.1264379614,-3.4936636420,-10.0085631491,3.3110335074,2.6779931002,-3.2824602471,-9.3354821573,0.3529604101,4.2754796753,0.4310295725,7.7684773586,-1.9785327874,,,
2.1171875000,135,1.1890038944,-8.4073420726,-3.1737119716,-4.5733007534,-12.5193363454,4.6237673223,0.1992303382,-10.3103022344,-12.4841802642,-7.1472220834,1.3251706781,-1.7336573492,4.8733966971,-5.7277982895,,,
2.1210937500,135,-0.1215536157,-8.2781661099,-5.0231125237,-4.0479617040,-9.7198795492,4.0719029521,-1.6265324062,-12.8364207321,-11.8801801742,-11.9619002243,-0.7904851288,-2.2292397547,1.5193962799,-5.4445593778,,,
2.1250000000,136,-1.3928911646,-5.2364605341,-5.6195131856,-2.3858314892,-3.0228823106,2.4959889768,-2.2797229311,-9.7974329193,-9.3960088218,-12.8282501815,-1.7821487719,-1.9152350454,-1.1115390419,-2.0244485372,,,
2.1289062500,136,-2.8529914080,-1.5543042935,-5.7214087931,-0.4762446374,4.3791084843,0.7787092586,-1.8360626419,-3.0439101551,-7.1705915846,-9.9115545941,-2.3142257203,-2.1558241492,-2.8564239721,1.7607794810,,,
2.1328125000,136,-4.3205622648,0.6251917684,-5.7042157947,0.9507839719,9.3642856038,-0.5358424164,-0.7625197829,3.9562646914,-6.1694011388,-4.3514029085,-3.0560413537,-3.4901984344,-4.1404590900,3.2606688278,,,
2.1367187500,136,-4.9550427606,0.7328585660,-5.0541820395,1.6960403051,10.4061200836,-1.2621056923,0.3856016079,8.1603542253,-5.6818577084,2.2740756855,-3.8123566125,-4.9961537668,-5.0849886588,1.7343557118,,,
2.1406250000,137,-3.7120988996,-0.0745461521,-2.7949102429,2.0489743560,7.9839383843,-1.3975880998,1.1755499399,8.4322975932,-4.0241882712,8.2749242319,-3.5581116385,-4.8992561895,-5.0850840926,-1.2947295668,,,
2.1445312500,137,-0.2299035511,-0.0772433395,1.4459593535,2.4194192106,3.8897035556,-1.0211548163,1.3609568564,5.7127438981,0.0563375099,12.0354343200,-1.4077527509,-2.0005574173,-3.3241336957,-3.2806691218,,,
2.1484375000,137,4.5558035711,1.5177981048,6.6232281937,2.9352803039,0.0642708110,-0.3556432259,0.8690329191,2.0624556826,6.2282790039,12.3135801896,2.3067337445,3.1617305729,0.2143441370,-2.5162989543,,,
2.1523437500,137,8.6408639728,3.9418267482,10.4989766445,3.3024323099,-2.3000798509,0.1643060992,-0.1993611193,-0.6124137678,12.4593613200,8.7412806473,5.8432269607,8.3345767121,4.2124979677,0.7319962715,,,
2.1562500000,138,9.9889379621,5.5259340318,10.9110019359,3.0240026070,-3.0028880162,0.0267310521,-1.5428646033,-1.3795011589,16.0420628152,2.2727624203,7.0530255667,10.8230078154,6.6060817390,4.5322513251,,,
2.1601562500,138,7.7266874259,5.0659082032,7.2477554363,1.8134092875,-2.5088600043,-1.0133426001,-2.6771908659,-0.3709773916,15.1283771271,-4.8393373599,4.9162636834,9.1809351639,5.9958196559,6.6801768992,,,
2.1640625000,138,2.7137333091,2.7926530222,1.0663960082,-0.0984726993,-1.4241595927,-2.6198156835,-3.0761608538,1.6256961295,9.8296667553,-9.7724135993,0.4660733822,4.1848066986,2.8139503616,6.1216705593,,,
2.1679687500,138,-2.8782298898,0.2148025329,-4.6448497987,-1.9878795041,-0.1536141635,-3.8904133595,-2.4234387077,3.6658223178,2.2280683720,-10.3728669374,-3.6601942959,-1.5645491766,-0.7569660457,3.4569557898,,,
2.1718750000,139,-6.7132330673,-1.0164130725,-7.1440602664,-3.0110012898,1.0899562785,-3.7993285295,-0.8385271832,4.9534974784,-4.6863488358,-6.3250291374,-4.8539410556,-5.1709455248,-2.2197805178,0.3071083578,,,
2.1757812500,139,-7.4893421274,-0.3496662750,-5.5178311450,-2.7208131175,2.0404436895,-1.8453229618,1.1014246192,4.9220163826,-8.5172328042,0.4400209912,-2.3085744231,-5.1526031495,-0.5962499216,-1.8901923018,,,
2.1796875000,139,-5.5160294121,1.2463429590,-1.1889515660,-1.4005954250,2.2143861539,1.5223224952,2.6157790184,3.2407065892,-8.5494804273,6.5080659028,2.2889837503,-2.2772882369,2.7072451104,-2.7601464837,,,
2.1835937500,139,-2.3726734263,2.0019468471,2.9679846181,0.0484241867,1.0974873609,5.0382479080,3.1264868660,-0.0791638216,-5.8632978898,8.7190108369,5.7160703065,1.0008914953,4.7580649847,-2.9559240586,,,
2.1875000000,140,0.1142010592,0.6831830521,4.3657463641,0.6580931829,-1.3655135604,7.2878330069,2.5659264148,-4.4712062830,-2.5215444890,6.0105546038,5.2861265802,2.1662128508,3.1951406322,-3.3324932946,,,
2.1914062500,140,0.9357300573,-2.4347298126,2.2286508935,0.0451541470,-4.3830357597,7.4830453137,1.3904983723,-8.7092100984,-0.3970148659,0.2197912785,0.6850086860,0.2987369314,-1.9007350885,-4.0565773632,,,
2.1953125000,140,0.3559518313,-5.6737615995,-2.0359632743,-1.3041924952,-6.4876926240,5.8179745269,0.2953713995,-11.1858920094,-0.3102291671,-4.8622737985,-5.6947594858,-3.3317459002,-7.7833305561,-4.4066770768,,,
2.1992187500,140,-0.4852388402,-7.0634511924,-5.8153022164,-2.3566116411,-6.3321141315,3.1778506147,-0.1897928313,-10.6215105809,-1.8336606896,-5.8271003057,-10.2040001174,-6.1612580027,-10.7539550540,-3.4372633977,,,
2.2031250000,141,-0.4951791740,-5.6624674971,-6.9417659866,-2.2528386619,-3.6212592628,0.4657282784,0.0142033078,-6.8636449160,-3.6863061750,-1.9771612667,-10.2291430986,-6.1277640608,-8.6790375004,-0.9601696272,,,
2.2070312500,141,0.5850902431,-2.1792520869,-4.9394902949,-0.9127323263,0.5331508208,-1.9130516630,0.5232064672,-1.2189121624,-4.4028811565,3.9679281265,-5.7988187375,-3.1196909848,-2.5419904457,1.9915903833,,,
2.2109375000,141,2.0643251783,1.4989938827,-1.1247325879,0.9083778515,4.1925913245,-4.0356273015,0.7424235187,4.0473417982,-2.9844855005,7.4591737310,0.5387664140,0.9579456292,4.0937130491,3.6821207774,,,
2.2148437500,141,2.8923261544,3.5092195775,2.3864621327,2.1494667920,5.7638430854,-6.0056117189,0.2378974932,6.8683016372,0.6363372125,5.1177440977,5.4198281180,3.5527284872,7.3795054898,2.8893399163,,,
2.2187500000,142,2.4908390740,3.1338049794,4.0293121803,2.1829939561,4.9421525075,-7.5157968131,-0.9792170765,6.5201957865,5.4334241081,-2.7954147421,6.7657077478,3.2816677168,5.6939832915,-0.0387662376,,,
2.2226562500,142,1.1988604075,1.1409075694,3.6280107768,1.2392363808,2.7567377190,-7.8592592564,-2.4163242321,4.0240816268,9.5611427445,-12.1414754306,4.9113485286,0.8875579739,0.6956977275,-3.1247591786,,,
2.2265625000,142,0.0063887142,-0.8122182492,2.2633883206,0.2140937535,0.7300711223,-6.4177734346,-3.3419402973,1.5109267948,11.0968890730,-17.1823137753,2.1150922528,-1.3406873348,-3.7725310277,-3.8956717914,,,
