Time:256Hz,Epoch,Channel 1,Channel 2,Channel 3,Channel 4,Channel 5,Channel 6,Channel 7,Channel 8,Channel 9,Channel 10,Channel 11,Channel 12,Channel 13,Channel 14,Event Id,Event Date,Event Duration
0.0000000000,0,-0.0000000044,-0.0000000044,-0.0000000044,-0.0000000044,-0.0000000044,-0.0000000044,-0.0000000044,-0.0000000044,-0.0000000044,-0.0000000044,-0.0000000044,-0.0000000044,-0.0000000044,-0.0000000044,,,
0.0039062500,0,2.0390671118,1.6425998178,1.6423841120,1.8688752212,-0.6796890220,1.4726236330,-0.1132455432,1.8123602968,1.5291385574,4.6441462795,2.1520969606,3.2849839183,1.1894018936,0.5664434903,,,
0.0078125000,0,-1.0388457104,-1.2003169020,-1.2564882663,-0.0315728626,0.2896231612,0.3730558647,0.0671234681,1.3045723864,2.0386727832,-1.6765455800,-1.7285840323,-1.0409121664,-1.3846773515,-1.4684165101,,,
0.0117187500,0,-2.5274420779,-1.4650054935,-1.4316783754,-1.6258626430,0.4420636465,-1.6354202758,0.2607308224,-1.3897727749,-1.8381538275,-6.1155142855,-2.9288133743,-3.2264219998,-1.7395003409,-0.9719852414,,,
0.0156250000,1,-0.7139314373,1.2847074559,1.1035550729,-0.9496323373,-0.3656979489,-2.4232372914,0.0612461493,-3.5594084661,-5.2757595445,-3.5765284436,0.4226940132,-1.0305421087,0.8507949676,1.7086025028,,,
0.0195312500,1,1.8459568380,3.3559133686,2.9483356848,0.5524843595,-0.8009878893,-1.5471217650,-0.4893589320,-3.1223537931,-3.4067620881,1.8726174638,4.1929396722,2.1568715333,3.3034190858,3.4622124783,,,
0.0234375000,1,2.6207586982,1.6247428715,1.7438200684,0.7972208991,0.1020314472,0.2857312759,-0.4858033730,-0.0991845731,3.3384003753,4.5020890668,4.1925223482,2.5663745635,2.5477336546,2.2571313761,,,
0.0273437500,1,1.0729232808,-3.0500249231,-1.7721799212,-0.6214396602,1.9454719307,1.7529389753,0.1786807486,3.2224907176,8.9149611157,2.6063541651,-0.2474070149,0.0515936703,-0.7254380476,-0.9601242099,,,
0.0312500000,2,-1.5426238003,-6.8822587981,-4.8386857609,-2.1475691721,2.9016680981,2.6096367244,0.7540744817,3.8644842446,6.9381390987,-0.5424083272,-5.7174701745,-3.2451821231,-3.7918634445,-4.2260590301,,,
0.0351562500,2,-3.9320104295,-6.6209753951,-5.5464132019,-2.1958122126,1.3876937151,2.7328009595,0.3338297071,0.9627011179,-3.0477404411,-1.6447753487,-8.2299064227,-4.7618158291,-4.7596430487,-5.7098199071,,,
0.0390625000,2,-4.4060152674,-1.8264894430,-3.4559779598,-0.4537276078,-2.0696681121,1.7864837822,-0.5278314554,-3.1532353741,-13.8851124542,0.2006449734,-5.2851049422,-3.2958001939,-3.1767021142,-4.2350751452,,,
0.0429687500,2,-1.4077898869,5.1470202102,0.8786423054,2.0693186458,-4.9246478147,-0.5328421317,-0.7649578652,-3.9094898258,-15.5998438836,2.3818165340,1.8752301889,0.5015544488,0.2818889292,-0.0990220477,,,
0.0468750000,3,5.5195777137,10.7315830253,8.0453721469,3.8555103729,-2.7635755391,-3.6181759773,0.7047350037,3.2999420691,5.1804894997,0.3962934976,9.4817159832,5.6600636079,5.0136185510,6.6214510126,,,
0.0507812500,3,3.9803290296,6.6813407278,5.4169713922,3.0548914312,-2.2460882101,-2.6303319064,0.0399786711,0.7417563770,1.7102026056,1.0490391049,7.6414303970,4.7263826015,4.0480659710,5.0213339389,,,
0.0546875000,3,4.9179232967,4.1072642362,5.3680427752,2.0742944799,0.4328789480,-2.1255167363,0.8628116586,4.2309577540,10.6342925979,-0.6700281694,6.2078003300,4.3951028925,3.6384451216,5.0128912619,,,
0.0585937500,3,3.7005972595,0.0834482679,3.5130472049,-0.5516310808,4.2076681139,-0.7896005883,1.4845462313,6.0489890822,18.4004481205,-3.3429847987,1.7958075432,2.6047404338,2.1269937685,3.0839684103,,,
0.0625000000,4,-0.8617384908,-5.1471661884,-1.3079358360,-3.4468685792,6.0004897602,0.8693623934,0.8080467079,1.6781599310,14.5172739787,-4.0870525388,-4.3827762798,-0.9633908853,-0.7605924374,-1.2544487974,,,
0.0664062500,4,-6.0457878899,-8.9021418105,-6.8028562438,-4.4700403110,4.1175171322,1.5378195280,-1.2697940178,-6.5879537512,-0.5892891765,-2.0996588623,-8.6824760560,-4.5166402712,-3.5303844058,-5.5695362788,,,
0.0703125000,4,-8.2400298715,-8.9549635027,-9.4087487531,-2.6767305876,-0.3948768621,1.0784295513,-3.2963031389,-11.9161650524,-17.0372993878,0.9629751754,-8.6697912157,-6.1478064300,-4.9124847112,-7.1354922388,,,
0.0742187500,4,-6.0093495344,-4.7490216624,-7.0230579190,0.4602161065,-4.2650082142,0.6697874529,-3.3658432945,-9.3896583296,-23.5683726054,2.6466821596,-4.7065213004,-5.2374999487,-4.4610765120,-4.7331997140,,,
0.0781250000,5,-0.8198440010,1.3481603253,-0.7136488351,2.2959949024,-5.1580666599,0.9563045866,-0.7422964709,-1.1456373713,-16.9818113371,1.9683610517,0.5795355045,-2.2413420691,-2.6078055100,-0.2841445688,,,
0.0820312500,5,4.4276258373,6.4875232666,5.5660746707,2.1025248618,-3.1836014193,1.7587477033,2.3462412716,6.8585248288,-3.2220860143,0.4240871133,4.8061441857,1.5540546191,0.3228671926,3.6295423230,,,
0.0859375000,5,7.2024005976,8.1323862673,8.3597076897,0.7470896824,-0.6729933721,1.5200818675,3.4187777346,10.0071305550,8.9277349627,0.1233366457,6.6919070995,4.7178702604,3.9659721237,4.9601135600,,,
0.0898437500,5,6.3668027890,6.1164273195,6.2532708393,-0.1550131113,0.4637289095,-0.0566781099,1.8252483957,7.6496522971,14.5878823453,1.5436105919,6.2483098246,5.8462924373,6.9195555267,3.8219062121,,,
0.0937500000,6,2.5925035243,1.8331347300,1.5860974363,-0.1876512161,0.4169738976,-2.0135689304,-0.1123345332,2.9842404283,14.8487530456,2.8797547696,3.7165428757,4.7781027799,7.0813495951,1.4387876731,,,
0.0976562500,6,-1.5984851531,-2.5021678151,-2.5413345818,0.7175087420,1.3754540325,-3.0008514574,-0.6524791213,-0.8330782779,12.7796017101,1.7888074275,0.0778936791,1.6718452859,3.5781738675,-0.3409530995,,,
0.1015625000,6,-3.5555656916,-4.7229411669,-3.9554704065,1.2346800337,4.3173171569,-2.0079494365,-0.2052564855,-2.1871903083,8.7184340553,-1.3810562918,-3.2386689999,-1.7490203957,-2.2173523961,-1.0353153359,,,
0.1054687500,6,-3.1208263236,-3.9983214121,-2.9201057347,0.6413871670,7.3220780094,0.4454570260,0.2925322030,-2.1462037147,0.8838770224,-4.0514500429,-4.5222086835,-3.7670206496,-6.8910800186,-1.1404742018,,,
0.1093750000,7,-1.7731660607,-1.6680499837,-1.3432519558,-1.0216132575,6.8681388088,2.4486904776,0.3317414298,-2.5975763589,-10.5289151764,-4.1767679176,-3.8925152416,-3.9669972569,-8.0075797795,-1.4511387710,,,
0.1132812500,7,-0.7659408025,0.3597692273,-0.2330915765,-2.1522573850,0.7577207488,2.4956579812,0.1207854501,-4.0606915718,-20.0855473032,-1.6686136798,-2.3517672026,-2.8396215259,-5.5785685724,-2.3001149879,,,
0.1171875000,7,-0.2878513484,1.2155771227,0.1574248344,-1.6159384085,-8.4695217335,-0.0051514439,-0.5906656965,-4.8991270089,-20.9147714832,1.3543332814,-0.8346178225,-1.0720935931,-1.3319469057,-2.2285894065,,,
0.1210937500,7,0.4220599174,1.2591941449,0.5458424125,-0.0200452062,-14.7625581051,-3.4102026172,-1.5741945924,-2.9241586633,-10.9184227452,3.0579615123,0.7202796876,0.6821168310,2.5901561860,-0.4704843279,,,
0.1250000000,8,1.1539082136,0.8053540411,0.8351758833,0.8468841733,-12.3721399210,-4.4220280393,-1.9797298948,1.2352703121,4.2530815300,2.6867760194,2.4190338550,1.9189508169,5.2132049901,1.8753607451,,,
0.1289062500,8,1.2709972149,-0.0206497510,0.5914869878,0.5164642611,-1.5135512458,-1.1142527897,-1.1294549499,4.9112146860,15.8448027815,0.5573693525,3.3203595713,1.9316935049,5.8645161151,2.7996525909,,,
0.1328125000,8,0.8359573060,-0.7126142911,0.0625816929,-0.2476828222,10.3153489630,4.2667181014,0.4925191333,5.5778365016,18.2295124475,-1.8526414281,2.1794718312,1.0466604789,4.1453038100,1.6980285015,,,
0.1367187500,8,0.0585696434,-0.8629379979,-0.0527574632,-0.4411178976,14.5775887778,6.8325235198,1.8444555275,3.1186255024,12.1813648155,-2.4846501650,-0.3659138970,0.0070943112,0.8971929038,-0.3087140919,,,
0.1406250000,9,-0.1731965019,0.5108099534,1.2830061727,0.0938716217,7.4529352554,4.7164001706,2.7083484741,-0.3365806526,1.2517588296,-1.4425695097,-4.1501676151,-0.7346180659,-2.5283871447,-2.1430502645,,,
0.1445312500,9,-2.2134781870,0.8629649708,-0.0050667259,1.2425109623,-3.2525083207,-4.8106099932,0.8014583205,-3.5402679820,-9.2809519443,2.3364812935,-0.9355592499,0.2251454853,-3.7611887038,-1.0798066199,,,
0.1484375000,9,-1.8451258972,0.0616398346,-1.6556993493,1.2022471599,-4.8925552326,-6.8677974360,-0.9990412262,-4.1622807883,-12.0116354303,2.3955856393,1.5675496720,0.1085705421,-2.8810968723,0.1215306115,,,
0.1523437500,9,-0.4051492454,-1.3448932138,-2.5637435060,0.3594134893,-0.1262655526,-2.8264366293,-1.5986762404,-3.0428360965,-6.5855121303,0.2052175982,1.9347033784,-0.7374231060,-1.3912513834,0.5784680307,,,
0.1562500000,10,0.8539616790,-1.6352685702,-1.5894338038,-0.5398443440,4.3271377519,2.4849599621,-0.5648334595,-0.1059511818,3.5419077788,-1.7958577200,0.7796670804,-1.4165611767,-0.1189703978,0.0606618688,,,
0.1601562500,10,1.6632096612,-0.2214552453,1.3614715450,-0.9124966282,2.6713840050,4.6083318199,0.9639430159,3.9121108536,11.3963109126,-1.2941762473,-0.4264294922,-0.5091798472,0.9468079620,-0.2612364028,,,
0.1640625000,10,2.0635828807,2.1530566073,4.6342430297,-0.6448028568,-3.9904436524,2.1465197414,1.2059485336,6.7643075251,10.8387781561,1.4723787546,-0.6200364064,1.9923830005,1.4930299826,0.3443351482,,,
0.1679687500,10,1.9163948103,3.7910358344,5.2158768424,-0.2707687757,-9.5034427753,-2.1723177101,-0.0306113120,5.8301686406,0.8974166884,4.0512691436,-0.4030691772,3.8665352727,1.4306625944,1.4025209283,,,
0.1718750000,11,0.7379216714,3.1846432055,1.9888148492,-0.1245619528,-8.6695057570,-3.9703825600,-1.7179593935,0.5629008540,-12.1722668247,3.0991599883,-0.3424316229,2.6559099906,0.7856134372,1.8656637926,,,
0.1757812500,11,-1.2427351745,0.4906349758,-3.1464761351,0.0442600492,-2.1033500274,-1.4835261474,-2.2555844743,-6.0404708104,-18.0347053556,-1.8865761904,-1.0264045893,-1.5344713794,-0.1186692441,1.0769852134,,,
0.1796875000,11,-2.6592905263,-3.0609176009,-6.5460640130,0.6291646603,4.8548193657,2.7832297453,-1.1095054799,-9.5896252644,-10.8894634600,-7.9361325878,-1.9204689350,-5.6030982146,-0.9376338610,-0.8830547776,,,
0.1835937500,11,-2.6793219226,-5.2313026697,-5.8896079900,0.9862260771,7.7164541472,4.2757912403,1.2130321621,-7.7364353238,4.6812525550,-9.8252610937,-2.0839640099,-6.3982693120,-1.4538014271,-3.0917737130,,,
0.1875000000,12,-1.1261414771,-4.5620415699,-2.0014768741,0.3867360530,5.9910269022,1.1973108397,2.8614756514,-1.8176398411,16.1971894361,-4.0156258964,-0.6034865821,-2.9880213831,-1.5562934530,-4.0807071745,,,
0.1914062500,12,1.2752712696,-1.3725142576,2.4671210033,-0.9596258449,1.9777482454,-3.8875309284,2.2756144694,4.2557982256,13.6219839621,6.6174007174,2.8458072648,2.4683090480,-0.5016243542,-2.8066488985,,,
0.1953125000,12,3.1692410225,2.1903632193,5.0327287089,-1.7650536961,-0.7462261434,-6.0396118006,-0.0035369140,7.3679007936,-0.8145291905,14.1397676552,5.9317958710,7.0920422828,1.5946250203,0.8080490789,,,
0.1992187500,12,3.2723398953,3.9520661606,4.8258031283,-0.7215467437,-1.0079910129,-3.2499874227,-1.5633157406,6.5901414136,-13.2402016081,12.2934683537,5.6840672665,7.7833846071,3.4452936142,4.3633879440,,,
0.2031250000,13,0.9434992409,3.0253343089,2.4660508065,1.2183162342,0.1080741741,2.6081946278,-1.2639284515,3.7085975280,-11.2691747885,1.4736144740,1.1789097251,3.8706831054,2.6775290995,5.3565589978,,,
0.2070312500,13,-2.7422836507,0.7830662216,-0.9647217924,2.0578955583,0.0939749392,6.6910583531,0.0519887361,0.6008011758,3.8789067356,-10.7688690657,-5.4785284888,-2.6996802939,-1.0868133693,2.8301255351,,,
0.2109375000,13,-5.0967067340,-1.1301053547,-3.5548960229,1.0518539911,-1.8343951830,5.7340329300,0.6279740712,-2.2285683147,18.0132829342,-15.3688249313,-9.2990170017,-7.8443442634,-5.3553129503,-1.6423908802,,,
0.2148437500,13,-4.2341323546,-1.7105429461,-3.9509784381,-0.8278446516,-4.2674224279,1.1126903261,-0.1955980943,-4.2575546342,17.0754042549,-9.4422990958,-7.3879072980,-8.0125954450,-6.0231850378,-5.2839689535,,,
0.2187500000,14,-0.3599919003,-0.7728832098,-1.8676982090,-2.0292142944,-4.3635725626,-3.4657664327,-1.3753671477,-4.4592477041,0.3471841622,2.5744656770,-0.8355410328,-3.4003623215,-1.7922806725,-5.1910451046,,,
0.2226562500,14,3.8203749399,1.1540260858,1.2512298924,-1.4369494178,-1.7674418266,-5.5230563622,-1.1516579352,-2.6071989171,-18.3756932981,12.5328513884,6.1130791743,3.0908532171,4.5824245435,-0.9910261058,,,
0.2265625000,14,6.1427554498,2.9113723671,3.7160603663,0.6471103564,2.2035810685,-4.4050249672,0.6098357789,0.8371094533,-23.3717666241,13.5245034418,9.0366638159,7.1122827734,8.6265374244,4.7209539022,,,
0.2304687500,14,5.2997624613,2.6820470751,3.6882766352,2.6342743247,4.6671051492,-0.8655998473,2.4013513635,3.6048622741,-11.0513165688,5.4106226831,6.4661151622,6.5593446139,6.8966341207,7.2725089460,,,
0.2343750000,15,1.4482973640,0.2739497455,1.0482631287,2.4431934719,4.2453256226,3.4789946723,2.2673017396,3.4690219008,8.3200558118,-5.6885175071,0.3181383124,2.0884030954,0.3920157910,4.0764267514,,,
0.2382812500,15,-3.1973717085,-3.2670785474,-2.5370331977,-0.4635161331,1.3777608026,5.7379384534,0.2501280536,0.5903863476,20.5580405456,-11.6815809724,-5.0699873971,-2.9931659488,-6.4040490415,-2.6203539935,,,
0.2421875000,15,-5.8149091969,-5.5337460137,-4.4472671352,-3.4888057268,-1.6483987733,4.5614041787,-1.9404915226,-2.7055276933,18.3833644922,-8.6851314416,-5.7996424322,-4.9791705510,-8.2952068675,-7.2741654039,,,
0.2460937500,15,-4.6142297515,-4.4853012291,-2.6713570062,-3.4472000412,-2.6114966993,0.8673387667,-2.5802531545,-3.7003993146,5.2010091350,-0.0942547487,-1.4772622838,-2.7469796756,-3.9250025661,-6.1072541566,,,
0.2500000000,16,-1.1278540760,-0.3695054384,1.0994579384,-0.3165800238,-1.3012462727,-2.5374260375,-1.4897290387,-1.8366047259,-9.3581777350,7.0044994906,3.6009643262,0.9701778661,2.8434505365,-0.5743864202,,,
0.2539062500,16,1.7267938688,3.6798716174,3.4426319863,2.9131544731,0.4347049850,-3.9140499868,0.2043782070,0.3917283808,-17.1312613745,7.1684678972,4.0047897984,2.4226757092,5.5318962656,4.2201014093,,,
0.2578125000,16,2.0289047359,4.9023386558,1.9873596532,3.2119050981,0.7018533970,-3.5668167659,1.0825257981,0.9446352983,-15.6838556254,1.1972604908,-1.2020606440,0.0305093526,2.1442651456,3.9557543115,,,
0.2617187500,16,0.3966525249,2.5156026296,-1.7830670530,0.9147292046,-0.4790166978,-2.7406220920,0.7725074245,-0.0518240785,-7.7372104257,-5.5149455565,-7.0529000923,-3.4049791076,-3.3680578075,-0.0456368154,,,
0.2656250000,17,-0.7387337111,-0.8736829048,-3.9394302599,-1.5043434203,-1.7520564146,-2.1298941943,-0.1977269055,-0.3351172975,2.5408976245,-7.4546196597,-7.1145813378,-3.6624601091,-4.4897384083,-2.8609312803,,,
0.2695312500,17,-0.2771752695,-2.7663167441,-1.7710563851,-2.2903555724,-1.6627604542,-1.8052545514,-0.6020427045,1.8555088940,11.5670206108,-3.3567850509,-0.0376165162,0.4713387916,0.4884419578,-1.6425899050,,,
0.2734375000,17,1.3509104874,-1.6628168696,2.8148650235,-1.4005287025,-0.2186613427,-0.3362019111,0.5011794705,5.0793563114,17.3360094002,3.5389412957,8.8880459602,5.8831805587,6.6674785727,2.4703538470,,,
0.2773437500,17,3.4224362547,1.6307717269,6.2366947517,0.7005716744,2.3959817810,2.8208678032,2.0997483939,6.2186248553,17.3030994659,8.5818942183,12.0404214219,8.0689546015,7.7028776998,5.5447320853,,,
0.2812500000,18,4.1368905549,4.5727242464,5.9205777201,2.8059123152,4.4184415635,6.9966962917,2.7364970230,3.3009802084,9.1591941167,8.7448255906,6.6778818563,4.5876953570,1.7416515473,4.7752281577,,,
0.2851562500,18,2.3972766130,4.3321249374,1.3877051014,2.9336012616,4.0130981268,9.1115946354,1.1333010033,-2.8293779060,-6.2850176812,4.3407020445,-3.7147598504,-2.2414078074,-6.3511816635,0.2688594415,,,
0.2890625000,18,-1.9410622350,-0.1951341951,-4.8018459314,0.3611307526,0.1839730784,5.9713458774,-1.9163990128,-8.7412380451,-22.0603404246,-2.7745264974,-11.6956495432,-8.2356846063,-10.1118277462,-5.2925575815,,,
0.2929687500,18,-6.5178367336,-6.1407268997,-9.1008005041,-3.1711878122,-4.6193827804,-1.6486010969,-4.1611117148,-10.4627679692,-27.1455483041,-9.1177669954,-12.1874930526,-9.7691253791,-7.1073485919,-8.3443194436,,,
0.2968750000,19,-7.9704767785,-9.0119191170,-8.3347931479,-4.7620669632,-6.7369723713,-9.2313182971,-3.6880230794,-5.7274662414,-14.8134906734,-11.3119412303,-5.5653950410,-5.9996742027,-0.3696728934,-6.5158920046,,,
0.3007812500,19,-4.5972003747,-6.0758403645,-2.5492919498,-2.9223452982,-3.6231352949,-11.0768580573,-0.1771369455,2.9771005384,9.5764029591,-7.5294974586,3.4487901465,0.7139025816,5.0596209480,-0.5666871510,,,
0.3046875000,19,1.9758710275,0.7898951284,4.8875700171,0.7415865687,2.8786607913,-5.2747001129,3.5983759281,10.0353181386,29.1729568425,0.6301734980,8.8003609836,6.3463072907,5.9727386924,5.4688881590,,,
0.3085937500,19,7.4534701023,6.7306199009,8.9137342470,3.4672948123,7.2140093082,3.3999311575,4.6237087563,10.1054339711,28.8054161331,8.6604688267,8.3392141092,8.0913479213,3.4605398645,7.1597852428,,,
0.3125000000,20,8.6576793148,8.2651884236,7.2812146159,3.7032714384,5.5122894178,7.8753236630,1.5271107202,3.4482041145,8.1436166183,11.9849164449,3.7440121165,5.5660493678,0.8177817089,3.8835933364,,,
0.3164062500,20,4.7795004158,5.1132418972,2.0231983037,1.8346864016,-1.0306737135,4.6854016980,-2.6050837430,-4.7587990833,-17.5830814293,8.8001162179,-0.8390387177,0.9718285215,0.4706337935,-1.0080165519,,,
0.3203125000,20,-1.7570540996,-0.0694994097,-3.0232398067,-0.3987311223,-7.1271653782,-2.0592663852,-4.5352536077,-8.4795846580,-30.3747040421,0.6948245471,-2.7917875964,-2.6066352988,2.0285909820,-3.5425816980,,,
0.3242187500,20,-6.6797010984,-3.8674077231,-5.0831207155,-1.6113325835,-7.8374628151,-5.6026806432,-2.8911037108,-6.0754149863,-22.1568459874,-7.7795224630,-2.2695763197,-3.6917805013,2.2267639894,-2.4445968609,,,
0.3281250000,21,-4.3041071659,-1.8932355171,-1.4956833073,0.4986476555,-0.0086695848,-1.2280944561,1.4611243920,0.4361872935,4.8076959812,-8.9780746750,-0.9340298300,-0.4574217424,-2.4436459043,2.0848922314,,,
0.3320312500,21,-4.4298369416,-3.7539885168,-2.3606171235,-1.5997574933,0.7050147834,-0.5727119327,1.8642421815,2.5646084147,10.0043478240,-7.8943466129,-1.3279088213,-2.2222062006,-2.1954723226,0.5850683187,,,
0.3359375000,21,-0.4229765030,-1.0456391016,0.5579200895,-0.5423795968,4.0711578853,2.8484234740,2.8261933264,4.8068929784,19.1671539215,-3.3082953025,-0.9279824065,-0.4209468462,-3.5092181887,1.6174879034,,,
0.3398437500,21,4.1807956636,2.7640609837,3.3064184872,1.0296103813,5.9085696149,4.2318223455,2.6096073825,4.8788094675,19.4952820713,4.3149000240,-0.1669523969,1.7671021119,-3.4460566440,2.1986770071,,,
0.3437500000,22,5.8865854530,3.9362522650,3.1617912813,1.2437076475,4.4779967884,1.8492027894,0.9812115752,2.3071034430,7.3186701721,10.1912467432,0.7048288806,2.2376279887,-1.0328795948,0.8338924513,,,
0.3476562500,22,1.3601076971,-2.6491062701,-3.0789581228,-1.3164163686,0.8277419297,0.1148502142,-2.1348543154,-3.8914327576,-14.4681751974,5.7610952045,-0.0764418778,-2.2900736462,-0.5930633589,-5.3009503142,,,
0.3515625000,22,0.6814257598,-0.1572083606,-0.9423442801,-0.7016271888,-2.0243300456,-2.9975306046,-1.8308332544,-2.5876352412,-13.0957490702,4.8215362576,0.8035101502,-0.2633673545,2.9336670109,-1.8392663683,,,
0.3554687500,22,-2.7214457888,-2.8488204588,-2.6868072545,-1.3148195832,-3.3884417262,-3.2385419245,-2.3445870206,-4.2017303748,-15.9261896080,-0.5729575682,-0.0279471838,-1.6510690002,2.4087989949,-2.6304803616,,,
0.3593750000,23,-5.1150755190,-5.1593885627,-3.7331023098,-1.6490176967,-2.6410847440,-0.1772457928,-1.7794241484,-4.4198440719,-11.0359786362,-6.6614139217,-1.0631281265,-3.1706191983,-0.1971766547,-2.9842837680,,,
0.3632812500,23,-3.5613391983,-3.2712901377,-1.2216941970,-0.8467624793,-0.3994151252,3.5734381266,0.2128963215,-0.8575227345,2.7287143395,-8.5561398056,-1.0918465395,-2.0793914382,-1.5749049755,-0.3820046796,,,
0.3671875000,23,1.9429100266,4.9231419641,3.7420628177,1.7688193975,-2.3535953794,1.4297460770,2.0829928714,6.3895740294,18.9138113583,-5.6653278657,0.7288193520,2.8683624959,1.0555038872,3.7692975029,,,
0.3710937500,23,2.4759460527,3.3876266932,3.8286711443,1.2710935302,1.6140216678,2.7013430483,2.1186484439,4.5792923353,14.3714436844,-0.5354662179,0.8699162572,2.1913972163,0.3277236411,4.5186529786,,,
0.3750000000,24,4.2927597626,4.7756482003,4.2003609188,1.6555629390,0.7753624109,0.3022672810,1.5833003479,5.1231865082,11.7506388341,2.8802418357,1.4183827032,2.9874315406,1.3035382303,5.0379052005,,,
0.3789062500,24,3.3045831982,4.5931054556,2.0577163202,1.5339158679,-2.3615304705,-3.7479007846,-0.0077251130,2.8221557243,3.2807005823,3.0140690259,0.7713415563,2.2957004598,1.2697745981,2.2444088618,,,
0.3828125000,24,-0.9911478253,1.2064023221,-2.1963787025,0.2928404737,-3.8322595827,-6.3919238583,-1.5324019375,-2.6976194499,-8.7497368139,0.7674329626,-1.1564675334,-0.1890756922,-0.3958437647,-3.0444153707,,,
0.3867187500,24,-5.2391059068,-3.2825962156,-5.1469917810,-1.4349387396,-1.1610403557,-5.3249241821,-1.9037489658,-7.9314539666,-17.0226757281,-0.1366486732,-2.9555668453,-2.3943797172,-2.2136961253,-6.7963717824,,,
0.3906250000,25,-5.5071728049,-5.7232842698,-4.2204427327,-2.1198511646,3.5763546458,-1.1674525956,-1.1478666436,-8.7391556829,-16.4229486708,2.6714963628,-2.3301830957,-2.3164783197,-2.2383767943,-6.1932925534,,,
0.3945312500,25,-1.0715967090,-4.4866686156,0.2267013838,-0.8254634358,6.5124939388,3.4212952510,0.3128526919,-3.8864158662,-7.3202445044,7.2883450138,1.1282128209,0.0203458626,0.5481458714,-1.3976320208,,,
0.3984375000,25,4.4074353884,-0.5755016893,4.6425271106,1.0268451864,5.7599490029,6.2738308574,1.5873719916,4.1168051763,5.1874482490,9.1458515619,5.0797284906,2.7479621360,4.0125690783,4.8584980920,,,
0.4023437500,25,6.3553709450,3.0410170432,5.8477770724,2.1155511564,2.1913648242,6.4052590342,2.0838522347,10.6976110588,14.4769142585,4.5943953955,6.3376505209,3.5429110709,5.3277627220,8.5065887299,,,
0.4062500000,26,3.3793681917,3.6050040462,2.7083304407,1.3744454460,-1.7107117557,4.3696218124,1.3028445144,10.8917450925,15.4845324893,-4.6980909567,3.2940862944,1.6284774343,2.4637497341,7.0391561070,,,
0.4101562500,26,-2.1072460497,1.1958146623,-2.6274126852,-0.8291803012,-3.9667930129,1.3172588061,-0.5372009161,3.4071012969,8.0627489609,-13.2645948751,-2.8149774946,-2.0640868457,-3.4116903101,0.8474857389,,,
0.4140625000,26,-9.5704460107,-2.9310838861,-7.1106935771,-4.8513254031,-3.9368696073,-0.5323517072,-2.6489379089,-8.7166402816,-1.7240844351,-17.3775676462,-10.3173119111,-7.9415957103,-11.5237897345,-8.3785113861,,,
0.4179687500,26,-3.5244895753,-3.2695916899,-5.8361101341,-2.7888240078,-4.6743943873,-8.0847774964,-2.4441488268,-13.5558600711,-10.9230586857,-4.4081965530,-7.8643901457,-6.1071545217,-6.4377979135,-9.8177363852,,,
0.4218750000,27,3.6931792092,-0.4799013141,-0.2207137181,1.4249377665,-2.6146077842,-8.6648041741,-0.4905225415,-5.2448778674,-9.9109475521,7.2392731048,0.0956815708,0.6222357958,2.9055783460,-2.7150599102,,,
0.4257812500,27,7.2833705287,2.7242555114,4.2115917453,4.8626281784,0.2078613027,-4.3110733266,1.2708801281,4.9684383217,-5.4547211804,10.3873398097,6.7802764918,6.6039422276,9.0116458014,4.8629852609,,,
0.4296875000,27,5.1991916184,4.1344028047,4.6053550141,4.6404374434,2.2630785545,1.2512593368,1.6205399041,7.9245714976,-1.6326712975,5.8297866351,7.3734948738,7.3797244731,7.5837565560,6.4697264213,,,
0.4335937500,27,-0.3430762413,2.4096933053,1.3607867004,0.8736796634,2.9568974922,4.6356621419,0.9952722857,2.5024627497,1.0745455832,-0.3979989948,2.2705390976,2.5952817367,0.6045215718,1.7914415313,,,
0.4375000000,28,-5.0391027821,-1.5166739153,-2.6806788236,-3.2073795420,2.2542851356,5.1750566698,-0.1399688562,-5.1019358209,3.4083969917,-2.9539529855,-3.9837385138,-3.8506404799,-6.3231471905,-4.3077542374,,,
0.4414062500,28,-6.3836499219,-5.1102200938,-4.4050553834,-5.0582926246,0.8350657895,3.7129252921,-0.8392908701,-7.9406941835,4.9368014510,-1.6611013357,-6.6149968999,-7.2524959017,-8.2138359620,-6.3035858133,,,
0.4453125000,28,-4.2247570154,-5.3478648966,-2.5763119593,-3.6634855996,-0.3883180320,2.0311790224,-0.6358811725,-3.3244834061,4.6015549768,0.7637215104,-3.9541934349,-5.2239304641,-4.0503609625,-2.4414052588,,,
0.4492187500,28,-0.2167227605,-1.1660412836,2.0301301880,-0.0246117968,-0.2977461116,0.3054741745,0.0025993214,5.2498649102,2.8085947873,2.1838217239,1.8515535946,0.7863988394,2.7928136938,4.6071781654,,,
0.4531250000,29,3.9802726593,5.0646562895,6.3237145120,3.8018633149,1.3552158459,-1.5557901141,0.5706798139,11.4463727613,0.9525536992,2.0941849325,6.4997616891,6.7956980385,7.6486868433,9.2640724323,,,
0.4570312500,29,6.5049699244,8.8195005368,7.3755647029,5.5205726397,2.5905787291,-3.4314906851,0.6675381366,10.5751969778,-0.4883582776,0.6733652001,6.5268568543,8.2801979570,6.9814626251,7.8315451108,,,
0.4609375000,29,2.9452100217,2.1230691406,0.8122800630,1.0990148228,-2.4417162940,-5.2527275446,0.4355193121,-0.7815942646,-3.7623426343,-2.3634220935,-0.1017118192,1.6532320549,0.7269370166,-2.9078466254,,,
0.4648437500,29,-0.1761499446,-2.1479555592,-3.2764442456,-1.3824679571,-3.2996214730,-2.7422213988,-0.0276816405,-6.3517304531,-3.8380702453,-2.7109648118,-3.0644373171,-2.6429805182,-2.7221095795,-6.5318097460,,,
0.4687500000,30,0.4900012680,0.4628213146,-1.9255814986,0.1941111139,1.4369777220,1.4109460549,-0.2572372587,-3.6750909681,-0.9110324460,-0.9276477510,-1.6215312193,-1.7856971095,-2.7195470569,-2.1375050301,,,
0.4726562500,30,-1.7251277023,-2.5356718930,-3.8654139416,-1.6780684230,-0.0884169398,2.1841647498,-0.2085358800,-5.5734748137,-1.2242180318,-0.9418449938,-3.4487918135,-4.1778415658,-4.0507182296,-4.0784910214,,,
0.4765625000,30,-4.8940447402,-7.1850341338,-5.9742189387,-4.1286857397,-3.6906719814,2.2056275616,-0.0626919466,-6.6546709361,-1.9723808549,-0.4655869347,-3.9248021351,-5.9659804014,-3.1206959273,-5.4131241323,,,
0.4804687500,30,-5.6997144702,-7.9169766189,-4.6261635138,-3.8862831428,-4.8195828307,1.8013875420,-0.2716463054,-3.5170481405,-0.2733755527,0.8015899057,-0.9008063655,-3.8343673632,0.2358308628,-2.5344973012,,,
0.4843750000,31,-0.1701115534,0.9235674191,2.7754949391,1.0709327820,2.1078429818,0.9806735717,-1.0215106663,3.2162379049,3.9428070902,1.5663733689,3.1941842259,3.1600139519,2.2199347013,4.8145839948,,,
0.4882812500,31,0.1351440033,1.1027916992,2.1599800077,1.2852198477,0.6716344859,0.1206044199,-0.0863181259,4.4827796335,3.4699610002,1.3726261621,3.3866733930,2.8617371451,2.9616447809,4.1149190942,,,
0.4921875000,31,2.3174017534,4.8916998724,3.9018928872,2.8928410322,3.3432233179,-0.7860501496,0.0647573315,5.7691069769,4.0050032251,-0.0727007755,2.8432084686,3.5586938849,1.0819969798,4.3529984855,,,
0.4960937500,31,4.1458982001,7.3491671547,4.1177250064,3.6864768837,6.0695845793,-0.7240576185,-0.0213783317,4.0412086723,1.3392174340,-1.7111085103,-0.1416723159,2.7394979343,-2.4472338715,2.5486779620,,,
0.5000000000,32,3.9220168489,5.9101006798,-0.4254367593,2.6330803899,6.2006807307,0.6303698500,-1.1759932775,-0.5001750364,-7.7426587228,-3.8874183143,-6.9083860632,-1.4452345695,-8.3811963399,-2.4620137371,,,
0.5039062500,32,3.9113897648,0.8221313752,0.7934446157,-0.9822363875,-2.1983437122,-0.0805030989,0.0823939354,-3.1128358118,-8.6111744246,3.8160483206,-0.3157007383,1.5537501761,4.8720886059,0.4061539917,,,
0.5078125000,32,1.6261397693,-2.5530398350,2.1210594468,-2.5533242783,-6.1159684030,-1.3635717456,1.3691715848,-2.0601642374,-1.4372963761,6.5962985795,5.3623875621,2.8965877891,11.4736672235,2.3561881500,,,
0.5117187500,32,1.7220278078,-2.2348765170,6.4285629442,-1.4903725196,-2.1078794694,-3.5658482683,2.6139107192,2.3448306612,11.3347040549,7.9503713478,10.2258126096,4.9665454799,14.3491436477,5.2048932588,,,
0.5156250000,33,-7.4265875974,-5.1795629222,-2.8280091112,-1.2056877443,1.0242344193,0.5041199360,2.3414715380,0.1565785682,12.6190710715,-5.2517676771,-2.4622349416,-4.6686701842,-8.2340070793,-4.8282588361,,,
0.5195312500,33,-14.7828997934,-8.2407077840,-15.6657087039,-3.2615869713,-2.1149821313,8.2644008325,1.9834730574,-1.5071008761,4.5938381791,-22.8009020453,-18.9148091514,-14.3969400539,-33.0368095003,-14.0708569258,,,
0.5234375000,33,-0.7014584790,1.9626175727,-4.6853289006,1.8133926537,-4.8924333595,0.6305914855,-4.6560335566,-5.5128662187,-15.9406982804,-0.7648445968,0.7267113079,-1.9532267151,-0.8514023601,-2.4056387900,,,
0.5273437500,33,6.7368248584,4.4637002772,4.0216833184,3.0422722707,-1.2615330497,-4.2302982052,-4.9251120408,-4.0331647246,-14.3894053241,11.3759289833,9.2445324650,4.9570498856,15.8476422659,5.0253119931,,,
0.5312500000,34,5.5227324866,1.5014997313,5.3968618405,0.9965753889,2.2217789089,-4.7993417956,-1.9809714505,-0.4450268007,-3.5829368802,10.9519085913,6.2583310571,4.3200939864,14.9589154037,5.2088281060,,,
0.5351562500,34,0.1536400910,-1.5918136696,1.9523486512,-1.3594297422,2.6241186190,-2.4334020393,1.1183849793,3.2364025882,6.1196482950,3.1371436917,-1.9480807027,0.4400716697,3.6143358779,0.9547508818,,,
0.5390625000,34,-2.8201039683,-0.8709260025,-0.9993209299,-1.8246087089,1.4698118078,0.1758108998,2.4773927408,6.0330052479,9.7975576175,-3.2291639143,-6.8287028025,-1.2559547039,-7.2635206162,-1.9088756697,,,
0.5429687500,34,-0.7424372447,2.8470466823,-0.1250360955,-0.4430037681,1.4500892169,1.4505050011,2.3336973641,7.1385842650,7.7837265924,-4.1322007075,-4.1260655223,0.9806296691,-9.8922333000,-0.1192513606,,,
0.5468750000,35,3.9987485030,5.4763032533,3.0930159133,1.4745171864,3.5634523515,2.1476291620,1.5124425181,5.2322148944,2.6795930688,-1.9561700473,2.8792908803,4.1312112776,-4.4087940121,3.7605123498,,,
0.5507812500,35,6.1295091978,3.5168234663,4.2315812463,2.3094935190,5.3767958608,3.1862395379,0.4715441272,0.1800281766,-3.1011075805,-1.2425475858,7.5039795085,4.1204590973,3.0560653824,5.0846559186,,,
0.5546875000,35,2.9046412441,-2.1108165035,1.3148039950,1.3075811686,3.6820229256,4.1186342526,-0.4498334661,-6.6237421222,-6.8498103225,-3.1309049576,5.1694925848,0.1788782658,5.9557198742,1.3999192629,,,
0.5585937500,35,-3.1670038356,-6.9348000869,-3.7091635324,-0.9233286899,-2.1666425663,3.5033528818,-1.2912554489,-10.8675173532,-6.5882921752,-4.6119827394,-1.8230523479,-4.6407718627,3.1807079873,-4.4055393114,,,
0.5625000000,36,-6.9137724782,-6.5351223159,-6.2822327007,-2.3593949269,-9.2976861820,0.8046490830,-1.3672477867,-9.0482214919,-1.8024038396,-2.5468204353,-7.2820333222,-6.0367019267,-1.7236253004,-7.4735320528,,,
0.5664062500,36,-5.3937387761,-1.0644135020,-4.0066321919,-1.6614201064,-12.1157468613,-3.0179014796,-0.5818382320,-1.1438794704,4.2657297544,3.1194265378,-6.9848198318,-3.3287938315,-4.3831448076,-5.0116695349,,,
0.5703125000,36,-0.5902840897,4.8366281757,0.9674780873,0.4538769057,-7.9060340030,-5.6477791957,0.3548974830,7.4285203637,7.3369450213,8.0019967990,-1.8984994409,0.9958715523,-3.4705988389,0.8842051872,,,
0.5742187500,36,2.7610388979,5.9005863964,4.1259171875,1.5097061409,1.0337839628,-6.0649052405,0.5994802271,10.4112062260,4.6428381940,7.6546435020,3.5190906007,3.2601029982,-0.5049368598,5.3174155376,,,
0.5781250000,37,2.3225269965,1.1913350422,2.7329504975,0.3554104347,8.3827810924,-4.4124081052,-0.0509054650,5.7317634746,-2.0879914550,1.5149643537,5.0220806398,1.8964366514,1.8426612565,4.8779838014,,,
0.5820312500,37,-0.3306066443,-4.8646708829,-1.0404956376,-1.7406161528,10.1590475098,-1.6255050691,-0.9888929035,-2.2543439688,-8.1972050109,-5.9532334917,2.4025115699,-0.8733383445,2.3062933115,0.8325520790,,,
0.5859375000,37,-1.6526046772,-6.4963149154,-2.8122415206,-2.0023564509,7.0517635074,2.0119537661,-1.2208984419,-7.3134161333,-8.8756947261,-8.2489915530,-0.9116812119,-1.8262068890,1.9822400949,-2.8152097511,,,
0.5898437500,37,0.2171533302,-1.6726575448,-0.5920781188,-0.1404549199,2.9314815988,5.7508799634,-0.1976266330,-5.8772747827,-3.4428438399,-3.0127438126,-1.2371509671,0.5833094260,2.1983420775,-2.7138738644,,,
0.5937500000,38,3.2941950904,5.8579243560,3.4132395834,2.2206140356,0.2146652267,7.8145326847,1.6938768921,0.2620115931,4.9292132596,5.7120451541,1.2249014913,4.1906088906,2.6285222880,0.3921255428,,,
0.5976562500,38,5.0519058793,9.7819057397,5.2275994264,3.1543235210,-1.6942112423,6.5922290969,2.8415893777,6.4224098770,11.1057745445,10.0636607965,3.2894542501,5.2950188458,1.6308861715,3.2467432033,,,
0.6015625000,38,3.3692775243,6.7010200660,2.7965029321,2.2186128087,-4.1816267299,1.8371623917,2.2179724074,7.8704776531,11.1366732553,5.6992079365,2.1394650233,2.0892024960,-1.3224878590,3.0575960972,,,
0.6054687500,38,-1.1818026267,-1.1695100221,-2.4643418580,0.3572601321,-7.1739664463,-4.9578231111,0.0253938170,3.3163400465,4.7897391296,-4.3749629834,-1.4796505551,-3.3672780589,-4.5608046865,-0.6949799942,,,
0.6093750000,39,-5.9759019664,-8.5171816240,-6.6274977440,-1.5685348619,-8.3247794167,-9.8370569224,-2.4917742695,-3.9176733015,-4.1538589516,-11.9888012004,-4.7247542636,-7.2013674547,-5.7783250010,-5.1832716160,,,
0.6132812500,39,-7.5860308801,-10.7361085556,-6.5426431601,-2.6496954986,-5.3122777019,-8.6399110561,-3.4567250698,-8.8948178373,-10.8776701047,-10.9315141701,-5.0918899141,-6.4500735967,-3.7665831862,-6.2555035587,,,
0.6171875000,39,-4.3760492117,-6.7326887205,-2.1710940773,-2.1302750579,1.7795728538,-1.1139816830,-2.0730082756,-8.3276370015,-11.6264398255,-2.0918032584,-2.6174864324,-1.5476124974,0.3886652477,-2.6331373388,,,
0.6210937500,39,1.6977414512,0.8999252848,3.4446276066,-0.3347271868,9.3838949996,7.7839144374,0.3798443184,-3.0548448625,-6.9465870287,7.4472074767,0.8662906346,3.5973092866,3.9539527102,3.2770336468,,,
0.6250000000,40,7.4798153942,8.3827809514,6.2987371311,1.1010804643,15.0976720648,16.3669124809,2.7783716930,0.3629887446,-5.9514222618,11.6630671533,1.5140511114,4.9447609744,3.4607530661,6.4587480912,,,
0.6289062500,40,4.9593335860,9.6198149252,2.3231397933,-1.0808366813,2.4284369756,-1.3239391944,1.3094649736,7.9130305773,6.7258014801,1.8040989941,3.5200840614,2.2523458137,2.8201836625,5.6597543873,,,
0.6328125000,40,1.2452302642,3.9057603572,-0.5375619711,-0.9745480509,-8.2740284149,-12.3272943794,-0.4730571410,8.7755903767,12.5516868094,-4.1681418074,3.3891629612,0.5701144321,1.7905042089,1.9258763420,,,
0.6367187500,40,-1.1744648638,-2.1462846936,-0.2123602535,0.8639873904,-10.0781794623,-11.2666159937,-0.6678673135,6.3297387337,13.4105795189,-3.1013283638,2.9264291355,1.2274940677,1.2981081600,-0.8662118126,,,
0.6406250000,41,-1.6049780048,-4.3901769712,1.7308525228,2.5468260407,-2.7015306588,-0.6765291498,0.5724302300,2.5671873494,9.9029467316,2.0116753341,2.4851990916,2.4709706901,0.8786614485,-1.7989660113,,,
0.6445312500,41,-1.0238419434,-2.8040856182,2.3847262636,2.7738280989,6.7359803326,10.2309451022,1.5689021710,-1.6680432357,3.0767842034,5.3230876399,0.9699364304,2.1967820208,-0.4130121092,-1.5034887472,,,
0.6484375000,41,-0.2921469034,-0.5059251305,0.2016700131,1.1957610744,9.7917163852,13.1755513548,0.9315862110,-5.3132558894,-5.0558197977,3.6545861342,-1.6579313540,-0.8239945042,-2.4665380242,-1.1217093724,,,
0.6523437500,41,-0.6998600817,-0.2344385804,-3.9268242567,-1.5495731143,3.7636549973,5.8818607809,-0.7278262870,-7.2633769156,-12.4780094699,-1.6645066667,-4.8333502664,-5.3086449809,-4.8750440629,-2.0568940947,,,
0.6562500000,42,-2.7012355599,-1.9058577052,-7.4973282388,-4.0404187667,-6.4256013020,-5.6033890179,-2.1942834864,-6.7364945689,-16.3237053704,-6.5896625304,-6.9541394631,-8.7949747699,-6.1602617833,-3.9742129409,,,
0.6601562500,42,-3.8842343368,-2.6760134063,-7.1002054465,-4.0937600951,-12.3163053534,-13.0359957452,-2.2765144899,-3.8763398135,-13.7457578476,-7.3752505640,-5.9035342959,-7.6856420124,-4.3926777011,-4.6503317443,,,
0.6640625000,42,-1.7731811388,-0.0924005002,-0.8949507665,-0.9390940807,-9.0798655619,-11.6229681881,-0.7932872164,0.5695521302,-3.5029363866,-2.8241337667,-0.5537479131,-0.7004274981,1.3111710599,-1.5182129148,,,
0.6679687500,42,3.3891060687,4.7221182698,7.6861313255,3.7497349747,0.8307577864,-2.7589147550,1.4135392600,5.4341094220,10.5853672742,4.1310752341,6.4934490295,8.6815166823,8.6652881157,4.7553326233,,,
0.6718750000,43,7.2420851930,7.0552044933,12.1347399501,6.2758341864,9.5617650736,7.7124215481,2.9474889217,7.9644764832,19.4364743040,8.0198959938,10.4447011878,13.3433530760,12.2292950233,9.3369061229,,,
0.6757812500,43,5.8297795837,3.7014284729,7.9145944977,4.1082249469,10.4824964332,13.2228352570,2.4109385897,5.8348846688,16.0398191492,5.6452630234,7.2715522200,8.9002546012,7.4137932470,7.6044944533,,,
0.6796875000,43,-0.0238528456,-3.5220142061,-2.4460445998,-1.1901927087,3.7353167268,10.5654639854,-0.2898650422,-0.5194211821,1.9194187721,-1.9235744733,-1.3494949576,-1.8377835309,-4.0878777386,-0.3054581806,,,
0.6835937500,43,-5.8663066286,-8.6770805502,-10.5602853329,-5.5407168826,-4.3807212552,2.0286036710,-2.8600067493,-6.6259246197,-12.3972297934,-8.7311156255,-9.1388807741,-10.1431120984,-13.9784698079,-8.3984259434,,,
0.6875000000,44,-7.2480242110,-7.3146247950,-9.7777400431,-6.0642480037,-6.7844016504,-6.4885245409,-3.0640606651,-6.9585038988,-16.0469821294,-9.1365011954,-9.7264414706,-10.1694385256,-13.9918315678,-10.0715365430,,,
0.6914062500,44,-3.5489431713,-0.4371483344,-1.4857852629,-2.4098065872,-2.3135980697,-10.4675866602,-0.4661642106,-0.6844947114,-6.4334840050,-2.0842018673,-2.9636771923,-2.7795608633,-3.5095035447,-3.9105964350,,,
0.6953125000,44,2.1566183929,7.1388474193,6.7816717789,2.7847392749,4.3516226235,-8.6207023126,2.4098921855,7.4633297009,8.3181616378,7.5255869930,5.6860383830,5.1615040900,9.4139632362,5.3395198937,,,
0.6992187500,44,5.8354627831,9.4986940499,8.4129825529,5.8138962252,6.6448974038,-3.3162543923,2.9900732483,10.1194389743,15.6779263381,12.2500747389,9.0631512027,7.4716616360,14.7167271998,10.0691969241,,,
0.7031250000,45,5.4483565513,4.8266405154,2.9068605079,4.5774577045,2.4242059184,2.5004987511,0.9984184381,4.4746031763,9.2293903654,8.4669184471,4.8844171676,3.2097798166,8.8596650428,6.5405692989,,,
0.7070312500,45,1.7394139259,-3.2303950105,-4.5531134686,0.1000751388,-4.6865142843,6.2468598919,-1.3528519892,-5.9426143085,-6.2626010745,-0.8804146352,-2.8100512253,-3.0473531111,-3.0565789290,-2.3679401291,,,
0.7109375000,45,-2.0673061386,-8.6797347498,-7.8530447558,-4.0344084064,-8.5401766505,6.7669383664,-2.0987027029,-13.6451290736,-19.0145085620,-8.8527507184,-7.7689923526,-6.1690284907,-11.6244258680,-9.1896915429,,,
0.7148437500,45,-3.7334303418,-7.4316120983,-4.4678310689,-4.9568991627,-6.4393401146,3.9835608146,-1.5603040280,-12.9404305184,-18.5103459544,-10.2757925183,-6.4303040810,-3.9846481297,-11.0976520460,-8.8916613911,,,
0.7187500000,46,-3.3576277480,-1.2937562680,2.0166408184,-2.2301143544,-0.1870212389,-0.5471253479,-0.6135485463,-3.8993908183,-4.3059480984,-5.8761536977,-0.6543744669,0.9922028414,-2.6483716491,-2.0849797625,,,
0.7226562500,46,-2.5487536159,4.6713448767,6.0268373448,1.2427242361,5.3032612508,-4.2708608983,0.0318866769,7.4968461625,13.5510194985,0.1998362514,4.6877240421,4.2399815072,6.5291739656,5.2827225034,,,
0.7265625000,46,-1.4936011418,6.2592277636,4.9607423331,3.2131608586,6.2645278288,-5.3894138118,0.5235969079,13.9223632162,22.4494856974,4.6653975255,5.9785619365,3.6867082399,9.8988989311,7.9460508720,,,
0.7304687500,46,0.4839755527,3.3345542206,0.7609336746,2.8071197038,3.0304027603,-3.5270955481,1.3294369382,11.8319293613,16.1339168029,5.9535674432,3.5187835183,0.9512173045,6.1293246203,5.2513238837,,,
0.7343750000,47,3.2651555703,-0.7495129015,-2.2929846111,1.0899454609,-0.7372655559,0.3187113506,1.9985327732,3.6294646237,0.3669631321,4.7310209112,0.0837521774,-0.8422073026,-0.0897544074,0.6812687188,,,
0.7382812500,47,5.7488748710,-2.8970614242,-2.1262500163,-0.5519549814,-1.7529804854,3.9824518098,2.1061177104,-4.6101627891,-13.0251216963,2.9282306390,-2.1480265362,-0.3541296557,-3.4293427301,-2.0000188081,,,
0.7421875000,47,5.4891955425,-2.2678054269,-0.1510452792,-1.1974682957,-0.0463336008,5.1824708313,1.0497819242,-7.9354401142,-15.1517291406,1.5699844931,-2.0742320841,1.0693628466,-2.8330889428,-2.1396330491,,,
0.7460937500,47,1.6157971257,-0.4450153938,0.7879634947,-0.9302566089,1.8633462075,3.3197666124,-0.9489958690,-5.8814447431,-7.1034619464,-0.1920845937,-1.1105782877,1.1210294160,-1.1607593647,-1.6453141135,,,
0.7500000000,48,-4.3009852194,0.7888808678,-0.5799245502,-0.5511634953,1.3528589148,-0.2574703162,-2.8690094611,-1.7341231509,3.2896468671,-3.6168129510,-0.6186398790,-1.1388457995,-1.4899822667,-2.3290958173,,,
0.7539062500,48,-8.8700506189,0.5367403390,-3.1864713232,-0.8265901234,-2.1213702257,-3.0021078551,-3.4086209789,0.8416386757,8.4158261589,-8.1860576310,-1.0922043435,-4.2804168446,-3.7631688628,-3.4735853599,,,
0.7578125000,48,-8.5781515079,-0.7941290283,-4.2153380918,-1.4618470466,-5.7674401802,-3.5506895353,-1.8973952060,0.4824096939,6.2377113815,-10.6700709292,-1.9112440836,-5.4528333775,-5.2152555703,-3.5870837299,,,
0.7617187500,48,-2.5578271350,-1.6153021320,-1.8383409100,-0.8443781403,-5.8082913563,-2.1212613127,0.7507561436,-0.6763437828,0.2346702605,-6.8726625232,-1.6162856363,-3.0646166603,-2.8088757604,-1.0211165539,,,
0.7656250000,49,5.7682678591,-0.7220155130,3.3527317919,1.2114329528,-1.0537459135,-0.3541907340,2.7002580764,0.0132526979,-4.7417401283,3.5672295064,0.7094668036,2.4243151664,3.7315389756,3.6865204450,,,
0.7695312500,49,10.9704034922,1.8632299086,7.3819414681,3.1465380013,5.6024083746,0.7821776865,2.8019461468,2.4524090090,-5.7890006136,14.8035734174,3.9563537139,7.1492810338,9.6769706668,7.6095070456,,,
0.7734375000,49,8.8197323443,3.8549913951,6.7004029973,2.6466233614,8.9071876922,1.0458396849,1.0704275297,3.5679603924,-3.4667742322,18.2939371657,5.2594392448,7.4734430485,9.4416641427,6.9978746001,,,
0.7773437500,49,0.7295377486,2.3448655415,0.6356715467,-0.1801066788,5.6301401757,1.1407992382,-1.3335625030,1.2693600087,-0.4430798378,9.5335043515,2.3171946717,2.2200370788,1.3687970271,0.7333570547,,,
0.7812500000,50,-7.7178309836,-2.4682574712,-6.7516314792,-3.1244014873,-2.6368597247,0.6190636273,-2.8247440814,-2.7427571713,1.0941392340,-6.6746288662,-3.4688074312,-5.0737175162,-8.7827323524,-7.3800352937,,,
0.7851562500,50,-10.6192632991,-6.2501134029,-9.5134758039,-3.9138704094,-9.6177290148,-0.5699626587,-2.1061353653,-4.3329557945,1.8256940609,-18.3459962227,-7.3552516093,-8.6297897238,-12.2406683567,-10.5806439932,,,
0.7890625000,50,-5.8966738365,-4.6039101579,-4.9913203181,-1.6390286216,-9.0870880708,-1.6875979735,0.5964328135,-1.2464549214,3.8590772413,-17.0082209657,-5.3622871005,-5.2704793578,-5.3925475035,-5.3403169912,,,
0.7929687500,50,2.9660088218,2.3634186111,3.9895040261,2.4827761778,-0.8622927498,-1.4069794431,3.3314407571,4.3302387857,7.5942908510,-3.8616081397,1.8481913295,2.8537496842,6.6302354615,4.8647060040,,,
0.7968750000,51,9.7005821241,8.9802376635,10.5788825200,5.2449826887,8.5022123619,0.5571796684,3.7802802981,7.2652070256,9.1411072637,10.7299888524,8.4172292151,9.3718738998,13.6667812620,11.8506627747,,,
0.8007812500,51,9.6250641307,8.8032619796,9.4586577416,4.1768163863,11.7568106229,2.6121320623,1.5719728028,4.0876369736,3.9756419194,16.6794098230,9.1356490080,8.7159014830,10.0925985727,10.0985801701,,,
0.8046875000,51,2.8241515008,1.5899279154,1.5046806883,-0.2766456230,6.7937193290,2.8526864276,-1.8997327322,-2.8397301436,-7.3201758724,10.7760808361,2.9725700488,1.2839563251,-0.7753611789,1.2753554224,,,
0.8085937500,51,-5.3137617285,-6.8880445863,-7.3929970989,-4.7789682192,-1.8903051119,1.4911258163,-3.8683994861,-8.1564131193,-16.8690125514,-1.8242910113,-5.4289643064,-7.1420031205,-10.0031684739,-7.4546218838,,,
0.8125000000,52,-9.1316530551,-10.5214521094,-10.9040503711,-5.5568443716,-7.5862250194,0.1795602505,-3.3705066003,-7.6969217179,-16.5953448656,-12.2874343118,-10.3855981534,-10.4074041650,-11.2308718916,-10.2273048724,,,
0.8164062500,52,-6.7456834572,-7.1420137057,-7.4248971120,-2.4672593417,-7.9748198002,0.0054706262,-1.2512177027,-2.4343379697,-5.3715971132,-14.0248407668,-9.0628283838,-6.4686760553,-5.5892824074,-6.7621015701,,,
0.8203125000,52,-0.9613580765,0.0200407149,-0.4002942602,1.6991502076,-5.0826724699,0.2031512910,0.8579871921,3.3899886901,9.7784319611,-6.9792559121,-2.9237783648,0.6997411099,0.5795298661,-0.9993640632,,,
0.8242187500,52,3.3030201766,5.3979098537,4.9650864228,3.6842296360,-2.2838743498,-0.9777674348,1.9425929240,5.3787552001,18.7027940730,3.0525256819,3.5279325629,5.4395266059,2.8346213094,2.6427044309,,,
0.8281250000,53,3.6356830097,6.0170669906,6.3058824438,2.7736429247,-0.9348509826,-4.2248168124,1.8188778216,3.2904003310,16.3478354281,8.8623084884,6.6102769954,5.2153612581,1.5970106965,2.8987411202,,,
0.8320312500,53,1.7426629034,3.3090396216,4.4592480987,0.6607731857,0.5997107752,-7.1175616242,1.0597154187,0.0033824718,5.4737204647,8.4134812578,5.7168945901,1.7216997704,0.5926645753,1.6117819567,,,
0.8359375000,53,0.1474053583,0.4146395614,1.8233379069,-0.7974057970,3.9182324553,-6.0003723380,0.5232931808,-1.4646728665,-6.2352235970,4.1300159072,3.4493825365,-0.8551753267,2.4831529444,1.3779373034,,,
0.8398437500,53,0.5018526948,-0.3275093025,0.4490349735,-1.1235642110,7.8305065008,-0.0942058080,0.5201294088,-0.2562016576,-12.1754128093,0.0579069339,2.1027335254,-0.2700781558,6.3269036449,3.1006313545,,,
0.8437500000,54,1.9940776539,0.3806147786,-0.0092791877,-0.5187182110,8.9106528259,7.5894794191,0.4138113395,1.7686045355,-10.5322843644,-1.6486888059,1.7632476923,2.5231035228,8.4231538626,5.3284619135,,,
0.8476562500,54,2.6362007451,0.1409654647,-1.1586123712,0.3068723416,5.2593886121,11.8049204767,-0.3278975219,2.0785688262,-4.9385441543,-1.9788581035,0.4273058890,3.8615100075,5.1280004993,4.9542497926,,,
0.8515625000,54,0.8268323936,-2.1350072078,-3.4830238537,0.6734975781,-2.0200707685,9.0295739619,-1.4760400819,0.0163322566,-0.3074762459,-2.3272185336,-3.1799251486,1.2499966983,-3.0481202384,0.4625941894,,,
0.8554687500,54,-2.7570681861,-4.7124346121,-5.1073649685,-0.0771054998,-8.3640096490,0.6461849162,-1.6316369084,-2.8585310137,1.0199263364,-2.8274820501,-6.8715672313,-3.8069536438,-11.1052890239,-5.6674622261,,,
0.8593750000,55,-5.2066291117,-4.1554155898,-3.4185351432,-1.1789870618,-9.6938760517,-7.8048212331,-0.6919160059,-3.9786521891,0.9277581462,-2.2116942482,-7.1139567692,-6.9382875441,-12.3714775744,-8.6191847096,,,
0.8632812500,55,-3.4471512822,0.7544887796,1.6266679276,-1.0735982713,-5.5174873525,-10.9045881498,0.3790227158,-1.9308701136,2.2522226807,0.1991659619,-1.9828872652,-4.6738266534,-5.0772980819,-5.8850236988,,,
0.8671875000,55,1.3476483231,6.3352038588,6.4599939859,0.3392553053,0.7771842538,-7.5850384161,0.7799524466,1.7326540682,5.3546357014,2.9866911077,5.4112795757,1.3352685561,5.6310719878,0.3656662791,,,
0.8710937500,55,5.0974057579,7.0682428682,6.7459127822,1.6979976604,4.6670342325,-0.8387973431,0.2007881079,3.7831472778,7.5627105149,4.0059666771,9.2736578828,5.9559001460,11.3332220519,5.1382073555,,,
0.8750000000,56,4.0028023055,1.0019246415,1.2462476328,1.1508969565,3.7880156132,4.6519019626,-0.2531497715,2.5293977654,5.6713545516,1.6139266223,5.8112660651,4.9843050338,7.9538209655,4.7793158433,,,
0.8789062500,56,-1.0042178771,-7.0398919651,-6.2294693508,-1.1342422869,0.2449239429,6.2490122817,-0.1397038890,-0.9096791994,-0.3172691627,-2.9156711106,-3.0986940906,-0.8501312452,-1.6486074697,0.2282718925,,,
0.8828125000,56,-5.4902804051,-9.7914730804,-9.8723275883,-3.0540334658,-2.2750197118,4.7317845883,0.1621469215,-3.2166357712,-6.5134172182,-6.3272342745,-10.7786669461,-6.9069750976,-9.8307285356,-4.3001333785,,,
0.8867187500,56,-5.5900066668,-4.7040357302,-6.4383094858,-2.8841989057,-1.1923651866,2.3587027841,0.2933805006,-2.4287525443,-8.3443115245,-5.8554004690,-11.0561251926,-7.7830679118,-10.8473954152,-5.3221175713,,,
0.8906250000,57,-1.1066104964,4.4441378457,1.8089530880,-0.2477446855,2.2855708294,0.1263796218,0.2177476807,0.6451695846,-4.3183743371,-1.0957993243,-2.9876067974,-2.2534699901,-3.7426643500,-1.4151276015,,,
0.8945312500,57,4.6434697459,10.8585775502,9.6884502382,3.4245797625,5.0110422725,-1.9750166482,0.3156124623,3.3077647357,2.3167013989,5.4969260444,8.3568035963,6.3085848147,6.7390833499,5.0029874070,,,
0.8984375000,57,7.3622416537,9.9292363349,11.8332011156,5.6009686713,4.0782169847,-3.6308031139,0.7003324824,2.9355220718,5.9001838148,9.0944086418,15.0979558422,11.8061686766,13.3792901166,9.2463925696,,,
0.9023437500,57,4.9939603798,2.5262075844,6.2752075801,4.3413984570,-0.2030692187,-3.9198296316,0.8911853513,-0.5722273472,3.5802285198,6.9171356904,11.6608101056,9.6123454672,11.2357176541,7.2110426807,,,
0.9062500000,58,-0.7996979819,-6.3434614217,-3.5657725280,-0.4229704456,-4.6981961211,-2.3721997581,0.5001863026,-4.2985572047,-2.9275320256,0.7034095481,0.2235970719,0.2201057271,1.2673241858,-0.5597569869,,,
0.9101562500,58,-5.6367151741,-10.9111354409,-10.9333695594,-5.2599895627,-5.9392192318,0.4179590317,-1.1716978943,-5.0146929834,-8.0325789796,-5.0313076975,-10.9470681919,-9.4530365269,-8.7579630557,-8.6779259647,,,
0.9140625000,58,-5.7877339188,-7.8357156076,-10.6522451289,-6.3715438471,-3.0824573300,2.8432392785,-2.7197278329,-1.0233825688,-6.9681222628,-6.2526338685,-13.6504677060,-12.1482568479,-11.4982975346,-10.5507050821,,,
0.9179687500,58,-1.7165848788,0.1975434653,-2.7581874381,-2.8535898073,1.6514204359,3.3486982247,-2.5994110554,5.1479309995,0.9546433860,-3.0648983778,-6.5759696089,-5.8290186632,-5.8799289851,-4.5458924230,,,
0.9218750000,59,2.5971671408,7.2797749761,6.1169769528,2.0923592542,4.5986236444,1.5494618028,0.0126989048,8.5470677526,10.8769458264,0.7660974218,3.6306994029,3.8905571135,2.1538526964,4.0703117668,,,
0.9257812500,59,3.4698809411,7.8030620784,8.8956048624,4.6973403289,3.6411594933,-1.3139990013,2.7847247427,5.7773821718,14.9352859517,1.5246776279,8.9906712239,8.8494274103,5.5907682822,8.3374983178,,,
0.9296875000,59,0.7056358523,1.9961032315,3.9762017616,3.3367394553,-0.7137522089,-2.7801720697,3.1219571425,-2.2684677451,8.7326200992,-1.1224730551,6.1876815408,5.7527562518,2.6994023670,5.0685150103,,,
0.9335937500,59,-2.7483522415,-5.1374840919,-3.5451991970,-0.1120205858,-4.4780896129,-1.9689953852,0.4040850642,-10.1788323539,-4.6279633993,-4.2655717915,-0.8113485448,-1.7246815585,-1.7503816190,-1.7577518877,,,
0.9375000000,60,-3.3691791355,-7.3519595765,-7.0830299565,-2.5123873992,-4.0845340719,0.5788201857,-2.7807347894,-11.4207057086,-16.3997546942,-3.5967090250,-5.5047522551,-6.2527544613,-2.4511115837,-5.5271740538,,,
0.9414062500,60,-0.2463984918,-2.6907658921,-3.6515851038,-2.1514159277,0.6708684124,3.4612004980,-3.2045283525,-4.3215502224,-18.0793808803,1.9305929563,-4.1750039107,-4.4239227017,0.9604980587,-3.1326731903,,,
0.9453125000,60,4.4410875169,4.9838285037,3.2142891576,0.2401527808,6.0571746692,5.1248740335,-0.3733960308,6.1652194910,-8.1636773287,8.7522803296,0.9843362744,1.3631725528,4.3924101278,2.3929039376,,,
0.9492187500,60,6.7192529740,9.2712980521,7.5583063786,2.4003035622,7.1953491891,3.7751996471,3.5403475184,12.5306635995,7.2477794205,10.7302481349,5.0754226297,5.8832946668,3.9212104686,5.7547363585,,,
0.9531250000,61,4.3189001571,6.3773558112,5.9784005352,1.9344503246,2.2594792045,-0.9470142112,5.4360269881,10.3195606838,18.6621465872,5.7615833237,4.8131348564,5.7894312879,0.0823734295,4.0192693771,,,
0.9570312500,61,-1.7957570654,-1.5482925053,-0.2989205728,-0.7004218546,-5.3381465913,-6.8359692627,3.6509297930,1.9233327489,19.3325898913,-3.0026907438,0.7442700218,1.3553544110,-3.7701825654,-1.2766345515,,,
0.9609375000,61,-7.3206277520,-8.9333816992,-6.3319884075,-2.9141479795,-9.5061851807,-9.4463695011,-0.8063970002,-6.6683347520,9.1221928111,-10.4542124427,-3.7818290771,-4.1611249672,-4.8303061024,-5.8414048093,,,
0.9648437500,61,-8.4842508336,-10.3569958641,-7.8414832840,-2.3505357238,-6.8260413958,-5.7850439199,-4.9153712124,-10.1605414678,-6.4116387236,-12.2011406902,-5.7022060163,-6.8764716105,-3.3510618753,-6.2951871896,,,
0.9687500000,62,-4.5974220558,-4.6709430035,-4.0885731259,0.0634089431,0.4419635192,2.1350211998,-5.6931556749,-7.7479664059,-18.9055430449,-7.5330475090,-3.7420722202,-5.4740436008,-0.7841775330,-2.7812625451,,,
0.9726562500,62,1.7242502093,4.1855299075,2.1533173824,2.1236400460,6.9206157812,8.7700386820,-2.9452290484,-1.6103906406,-21.8390000108,1.2057436458,0.5434062667,-0.6347674970,1.7609915629,2.0139863278,,,
0.9765625000,62,6.6714430671,10.2491989985,6.4941434605,2.0598313355,8.4313775205,9.4210784665,0.8250423439,4.6213524432,-13.2293208139,9.1760584262,4.3692577622,4.6650296298,4.0103386882,5.1006085811,,,
0.9804687500,62,7.5848120142,9.2228601613,6.1170895718,0.6701423746,4.7149989357,4.1796951248,2.9338756599,7.5148774472,2.5006312355,10.9515918353,5.3513064114,7.0297009244,5.1003405812,5.0093293951,,,
0.9843750000,63,3.8372582011,1.9282291693,1.4324000813,-0.5199116297,-1.3177535260,-2.6451190797,2.0378178101,5.7948442598,16.4988807177,4.9254737947,2.8107847783,4.9748985446,4.0943757329,2.5752159326,,,
0.9882812500,63,-2.2261290825,-6.7210122164,-4.2400274256,-1.1225724890,-5.7252193805,-6.1944129357,-0.0198499457,0.9532454268,20.4330330051,-4.4271758553,-1.5053893805,-0.3512243568,0.7575994950,-0.7493633165,,,
0.9921875000,63,-6.3633574345,-10.5420472254,-6.7284510030,-0.9687633703,-6.2475029930,-4.7189725208,-1.0527386408,-3.7702791900,12.8300697336,-9.8137399884,-4.9712043878,-5.2751981646,-3.9640811722,-3.4481825196,,,
0.9960937500,63,-5.6255075495,-6.9618518619,-4.3998747553,-0.3081170502,-2.8395847508,-1.0896441613,-0.2695040186,-5.2935281542,-0.3437610060,-6.5335522839,-5.5773287116,-6.7881616171,-7.7001601715,-4.6318742130,,,
1.0000000000,64,1.7305736585,3.7349760268,3.5929340715,0.3788151001,2.1214488067,-1.5118434190,1.6009380383,-2.4080131871,-8.6481467124,6.2576378017,-1.0372574439,-1.3182555495,-5.4705414285,-1.2244204688,,,
1.0039062500,64,1.1034112492,4.1722802536,2.7276922853,0.7485382980,3.1481284721,2.3131419228,1.3104984061,-0.8128224212,-11.0086095374,4.4209931194,0.1781194198,-0.7845753618,-3.3798043105,-1.4557816124,,,
1.0078125000,64,3.9012243815,7.3020482887,4.7412746286,0.9254624687,3.8331218075,1.1874098007,1.4732160197,2.2889654477,-7.5415195434,8.0700251171,3.0996226554,3.0187572552,0.6232514645,0.9117151205,,,
1.0117187500,64,5.1700485539,7.0464022838,5.1849574768,0.4139965234,2.5826267401,-1.1256874859,0.7616033619,4.1461294039,-0.6485178250,7.4612662446,5.6363993457,6.5249267204,6.3044702880,4.7095208031,,,
1.0156250000,65,2.5760212888,1.4074720909,1.8559934505,-0.6847472122,-0.2601645628,-1.1811766644,-1.0562757677,2.7133703875,3.6426732191,-0.6002198339,5.0184756869,5.8442282616,9.4344207602,6.4068792116,,,
1.0195312500,65,-2.9398560693,-6.4154084608,-4.2784227116,-1.4274441478,-2.9643290087,1.7498112417,-3.0571449463,-2.0736143087,1.9052695381,-11.1612841669,0.3464220641,0.0403854010,6.6448158487,2.9139030676,,,
1.0234375000,65,-7.8035920980,-11.1060831793,-9.1806187744,-1.4828425597,-3.7107388306,4.9908579079,-3.6270986299,-6.3367703820,-2.9581359658,-15.9316037853,-5.6505794763,-7.1364144088,-1.0075946244,-4.5403890089,,,
1.0273437500,65,-8.1338962989,-8.3391296936,-8.2659990379,-0.7809758405,-2.3992356845,5.3172692834,-1.9806878119,-6.0835642463,-4.7128362950,-10.7313537353,-8.1801043424,-9.7915282193,-7.8929898989,-9.9075185454,,,
1.0312500000,66,-2.6656523734,0.7769769772,-1.0907604094,0.6693324926,-0.5450402516,1.3332919622,1.1111591219,-0.0114862021,-0.0065918547,1.3504680984,-4.4962111980,-4.3243850850,-8.4796865575,-7.9679119500,,,
1.0351562500,66,8.5238678298,10.8620114697,9.5178008865,2.5798073186,2.5572777828,-6.1801746226,4.2994915666,10.2863394437,10.9156717512,14.8849981619,6.5571031639,7.2541865305,0.4637686060,5.3912078248,,,
1.0390625000,66,5.9593320907,8.9878919291,7.3994138206,1.6793163709,0.9685242757,-4.8897919728,2.9169887753,6.1346585761,6.3792414962,10.9981408663,4.3088184426,6.5452987231,0.2052226537,3.7360106527,,,
1.0429687500,66,7.2266764514,8.1172660953,7.7557408001,1.6309018894,0.2670657197,-5.6275933556,2.2060633149,6.0726697774,7.6799327919,8.1779071693,6.6705812021,8.3530335150,4.6497984685,7.8939955211,,,
1.0468750000,67,5.0817820621,2.1413788848,3.7693958056,0.4146034705,1.1833796443,-3.5594937798,0.6506416353,2.7836542378,4.5489825115,2.8115191610,5.9311815066,5.0572423022,6.5234650827,8.6216698837,,,
1.0507812500,67,-2.0127348896,-7.5086804813,-4.5978143462,-2.1117729133,2.7729913227,1.7967608765,-1.4983042052,-4.5050527040,-5.5133070327,-3.0453144115,-0.4623298428,-3.5763542741,2.7009023004,1.9762843821,,,
1.0546875000,67,-9.7359228377,-14.1302473651,-11.8666386622,-3.7101861698,2.9472632021,7.0244961660,-3.2570338277,-11.2317579934,-17.0518205310,-6.3793112194,-8.7015586358,-11.1375393902,-4.0111276069,-7.7164614501,,,
1.0585937500,67,-11.6343857324,-11.6956744716,-12.1604074922,-2.6501447232,0.9009350948,8.4420124140,-3.4938462793,-12.0535991138,-20.0166497116,-6.0873528076,-12.4701360436,-11.8256331183,-8.0459420717,-13.0225705394,,,
1.0625000000,68,-5.6984397711,-1.4575502638,-4.4133346580,0.3279841504,-2.1486533680,4.9379045027,-1.7020586856,-5.3690714896,-9.1630991590,-3.8874182274,-7.9032978317,-4.9844722027,-6.3572637062,-9.0965575042,,,
1.0664062500,68,3.9608026372,9.5160986646,6.0290198800,2.7668132402,-4.0694193770,-1.1841832572,1.0501895062,4.8849441077,9.7533543625,-2.1205528375,2.3123655795,4.6819552421,-0.0835429079,1.2378567270,,,
1.0703125000,68,10.7405465645,13.5316302892,12.2837740964,2.8639515575,-3.6074011918,-6.1674920402,2.9964871181,11.3959297963,23.4934133712,-1.1577574807,10.8374263716,10.9030212269,6.1045036353,10.2326083795,,,
1.0742187500,68,10.1803821846,8.3482628268,10.3195612819,1.4258322788,-1.0316238167,-7.4455505652,2.6943074215,10.5709111653,21.0732756310,0.0432802867,11.6891285907,10.2426305339,8.2241652524,11.5896626533,,,
1.0781250000,69,3.0789924363,-1.4222532108,2.3212767991,-0.2992576568,1.9481074074,-4.9669858941,0.7358398694,3.3494592260,4.2030617959,1.8648843909,4.8850367035,3.4889219016,5.0924391984,4.6328170091,,,
1.0820312500,69,-6.7779759452,-12.2072832195,-7.8777383222,-1.5777680598,5.8660290840,-1.6268002986,-2.0711466502,-6.9141405958,-21.3989188453,2.9133899667,-5.1879141320,-6.2404367938,0.6544600948,-6.4625935586,,,
1.0859375000,69,-8.7804009111,-7.1369964810,-8.2494326561,-1.4104342265,-2.0844353310,5.6580438712,-1.6027241782,-8.6042324334,-17.8783999498,2.5757015550,-9.0876215247,-7.9714554095,-8.1713052745,-9.7914377757,,,
1.0898437500,69,-2.8197980930,1.4323250439,-2.3327641926,-0.4240844009,-6.0848752007,7.4565168339,0.0910368256,-2.9852661722,-0.9848017244,2.1017779437,-4.8648602544,-3.0163150363,-8.2667187507,-3.7318789085,,,
1.0937500000,70,6.1772424062,10.5230064435,5.3767974853,1.0048689439,-8.6611741310,7.1633269573,2.6975008866,6.4614326149,21.5185512666,2.2679816131,2.5167201474,3.7808112636,-4.6852533566,4.4972195794,,,
1.0976562500,70,-0.2855894234,2.4221167832,0.5966265670,-0.5237331594,4.4516000466,-3.0316703911,0.0044876671,4.5219569774,7.5418494771,-1.4227821994,2.6456834136,1.5324268187,2.4780487641,2.0518406211,,,
1.1015625000,70,-4.4852567708,-4.8165551080,-3.2614529078,-0.9458586116,11.0033697335,-7.1369082655,-2.1865996730,-0.9383557985,-8.0978023201,-4.0184835133,0.7087207265,-1.3602322537,5.9267105035,-0.7646701167,,,
1.1054687500,70,-4.3006533037,-7.2747399007,-3.7950686006,-0.9299178200,9.9194876597,-5.3193358080,-2.5193564148,-5.4757928970,-14.8608227352,-3.4368311114,-1.0496538176,-2.7080179786,5.2229667658,-1.4169349789,,,
1.1093750000,71,-0.2568048249,-4.6370758451,-1.2793029971,-0.7606676345,2.7694318576,-0.6211417847,-0.6573458080,-5.8079042917,-10.1365471907,0.4623705477,-1.3042944591,-1.9590689752,1.4961945883,0.0497678584,,,
1.1132812500,71,4.9250641436,0.9493210740,2.7656923820,0.0137047371,-5.5784722967,2.8629141543,1.5027606027,-1.5261081213,0.1808118874,5.3927525412,-0.2205673913,0.8943997706,-2.5909093758,2.1355685837,,,
1.1171875000,71,8.0818701921,6.2981552118,6.3039720889,1.8587301300,-10.1385924408,2.8225156259,2.6299151542,4.2687414085,8.1133465486,7.1625848379,1.8486041441,4.4544074968,-3.3770399051,3.8528752861,,,
1.1210937500,71,6.8468075793,8.8694958560,7.1035666258,3.5101282855,-8.6017589172,0.0171045048,2.3663228125,7.3282730701,8.8444367365,3.6299946561,3.8127771101,6.5940747432,0.3345588949,4.0244290663,,,
1.1250000000,72,1.5268093970,6.6390252746,3.8695780484,3.2362837423,-2.8636232434,-2.6229018626,0.8808539279,5.1598260058,4.4850839692,-3.7214375946,3.6691486519,4.7854190068,5.0254764016,1.9540642597,,,
1.1289062500,72,-5.1209667088,-0.2049035251,-2.5158206947,0.5190731761,2.9905310820,-1.9642679732,-1.4326760785,-0.5896386968,0.4823962351,-10.9270593035,0.0274540879,-1.5467247496,5.0656999225,-2.5939254066,,,
1.1328125000,72,-9.2094009287,-8.1474068962,-8.3836269137,-3.1939852262,5.7410788902,1.6469141652,-3.1872150508,-5.6583750670,-0.1750956183,-13.1492475331,-5.7529668018,-8.5908517879,-1.4903966793,-7.4709041833,,,
1.1367187500,72,-8.1506598061,-11.6308581646,-9.7856617104,-5.3955986567,5.1033722560,5.0837583340,-2.9790948315,-6.0953870570,1.7715634897,-7.3611412305,-8.9550317926,-10.7501809134,-9.6304551336,-8.8360577677,,,
1.1406250000,73,-1.9394625142,-7.4527037796,-4.8278386510,-4.1102579758,2.9280896715,5.1666116171,-0.2624924860,-1.3585914367,2.7455761023,4.4574422684,-4.9016998966,-5.1565482567,-10.7934926291,-4.1377599405,,,
1.1445312500,73,5.9173595796,2.1851333360,3.8061681713,0.2372107506,1.4619111836,1.7534866681,3.1308576681,4.8038988942,0.4748743045,15.6530413584,5.2201550653,4.8342361752,-1.7082280564,5.0742832576,,,
1.1484375000,73,10.2815411420,10.8924995294,10.2251284762,4.7832334004,0.9572906385,-2.6514577710,3.9451765496,6.6949867722,-3.6923805667,17.9493227641,13.6874253864,12.1278187853,10.6754859344,12.0999925309,,,
1.1523437500,73,7.5109488279,12.0548290909,9.6695421664,5.8760259687,-0.1560095531,-4.7108415333,1.5083179204,2.5467587815,-7.0821841778,8.5465439344,12.7617786039,11.2984573250,15.6088479036,11.1733568714,,,
1.1562500000,74,-0.3459932605,4.6716128661,2.3369313726,2.5467226098,-2.4186655613,-4.0257302313,-2.1562447120,-4.4284797908,-7.0527897808,-5.9500538121,1.6442246152,2.6438338050,8.0506760104,2.0745354602,,,
1.1601562500,74,-7.7539268041,-5.9193283349,-6.4659599304,-2.4799111828,-4.6354646054,-2.0246688590,-3.6622368543,-7.9045478409,-3.2640496460,-14.6300445347,-11.4083066559,-7.4944519628,-6.0412623398,-8.3603383324,,,
1.1640625000,74,-9.0495552987,-11.5375889572,-10.1805632025,-5.1219438783,-4.6402393957,-1.0131653514,-2.0831115758,-4.4352665114,1.9955939237,-10.9060155395,-16.1474737718,-11.7505508250,-14.9149574244,-12.4457719031,,,
1.1679687500,74,-3.9131705035,-8.3687043217,-6.1678548911,-3.3935518393,-1.7522816637,-0.9919117592,0.9202350999,2.9331165038,5.5044913420,0.8347507027,-9.1934280825,-7.4893588830,-11.6291561704,-7.5897999907,,,
1.1718750000,75,3.2778534903,0.6726291805,1.8708874954,0.7337196226,2.4396821017,0.1236602775,3.1333584925,8.3590605874,5.8729903340,9.4210880641,3.2713435245,1.6884077075,0.4467828395,1.9239285391,,,
1.1757812500,75,6.8381790267,7.9603793291,7.2062325081,3.4157992061,4.8563568611,3.5277942648,2.8926874841,7.3108868658,4.1091424045,7.0635945428,11.0824291002,7.5436065582,10.4213068379,8.4388844389,,,
1.1796875000,75,4.6454816422,7.7968334469,5.7821802344,2.4182496352,3.4176662318,7.4281625085,-0.0280704912,0.2317754465,1.5067217029,-5.0460141000,8.1224680707,5.2690111101,9.3193859142,7.1175117884,,,
1.1835937500,75,-1.1677310753,0.6483595776,-0.5688880474,-0.9965371817,-0.9795345910,7.4538161230,-3.6406296357,-8.0264376512,-1.3623424511,-16.4793850690,-2.4753099104,-2.4906739900,-1.1970580781,-0.2865528710,,,
1.1875000000,76,-5.7729723495,-6.8122123446,-5.8460852448,-3.7646000822,-4.6871585193,1.5258107711,-5.0197932088,-10.9771112182,-4.2554588996,-16.1561133334,-10.3918035027,-7.7167150900,-10.7801956750,-6.8883412078,,,
1.1914062500,76,-5.4641725610,-7.9813860323,-5.3827742063,-3.5901195052,-4.4195810660,-6.6095649285,-2.3911545951,-6.3874658497,-5.5439531945,-1.6048164225,-7.6806038369,-4.8724318141,-9.5929192220,-6.7797933830,,,
1.1953125000,76,-0.4938920909,-1.6437590057,-0.0898166654,-0.3573354749,0.0565373950,-10.9237036084,2.1955432818,2.6778688286,-3.6061010793,17.6709912806,3.9390406117,4.0365997020,1.7597104426,-0.1938338101,,,
1.1992187500,76,4.8079530406,6.2464686020,4.9946890456,3.5817382304,4.5750958116,-7.6165772524,5.0636455517,9.8992501627,0.8422418697,26.3855291098,14.1450107697,10.8043346733,12.9917361196,6.6993458705,,,
1.2031250000,77,5.7023965386,8.5574012798,5.0118692065,5.0412099617,4.7054352868,0.2628825689,3.8169949866,9.8677188182,4.2949145931,17.2953444091,12.7935056569,8.8745907530,13.1820229493,7.6442496184,,,
1.2070312500,77,1.7047365128,3.1531508642,0.1377724690,2.4691530503,0.5944364864,6.2761064175,0.0838075400,2.9452537224,3.0502336665,-2.8950778213,0.6284982986,-0.9181990382,1.9575722291,2.2469190651,,,
1.2109375000,77,-2.9043387875,-4.5727093931,-4.4017098159,-1.5383964514,-3.5141820550,6.3226271648,-2.3481418800,-5.2123649742,-2.1950544428,-18.8990338539,-12.1032357374,-10.2415676848,-10.3771413209,-4.0917212249,,,
1.2148437500,77,-3.3757115018,-7.3174554518,-3.9375037565,-3.2353748312,-3.6473485533,1.2972739944,-1.7688801800,-7.7599174107,-6.1361229501,-19.5159375845,-14.2737573594,-10.8214616594,-12.3985338860,-5.5459801671,,,
1.2187500000,78,0.1963656681,-2.6079739417,1.4486261814,-1.3491784426,0.4845339807,-3.5636052490,0.6071075516,-2.6361751536,-2.7637163454,-6.8266048272,-4.9413565220,-2.4818576599,-3.2069931457,-1.5981599326,,,
1.2226562500,78,3.6274467672,4.6430963508,6.5906462347,1.4819276260,5.0264389588,-3.8318528741,2.1776704477,5.5337700521,7.6444585150,6.9608745656,7.4234981654,7.5908589396,7.6351575724,3.3417340911,,,
1.2265625000,78,3.2234833161,7.4450395922,6.3828920646,2.1239851207,5.7293605380,0.7781872442,1.9313253680,9.6387088298,17.6784686516,11.2246552628,12.1974145796,11.2421767930,10.1306743725,4.2075479604,,,
1.2304687500,78,-0.7169990367,3.6103813071,0.7618384679,0.0177316161,1.3988004979,5.8108014937,-0.1363043911,5.5287065429,17.4324678795,5.3218608481,6.3547631456,5.8931604944,2.8541939963,0.3424604448,,,
1.2343750000,79,-4.8370118458,-3.7515467782,-5.9030445906,-2.4410703897,-4.7911305153,6.6724660331,-2.6001627048,-4.6108233802,2.6376429391,-3.2712006607,-4.1481790017,-3.6843526593,-6.9235869497,-4.5848422257,,,
1.2382812500,79,-6.0558901200,-8.5165178847,-8.8678580531,-3.0971474357,-8.3367378632,1.9920168143,-4.0261904233,-13.9967620141,-19.9631033766,-7.2994889122,-10.4949427258,-10.4900304988,-10.7081654693,-6.1554819811,,,
1.2421875000,79,-3.4846414474,-7.1249565441,-6.6688221259,-1.7142892463,-6.7557998171,-4.6893790211,-3.4776247965,-16.0444903043,-35.4060174932,-5.2242204353,-8.3111816358,-10.4548688169,-6.3304505687,-3.3017256797,,,
1.2460937500,79,1.5896688866,-0.3671816220,-0.5668935346,0.7302415574,-1.3446344241,-8.3991391209,-0.9419392129,-7.7604573700,-30.5369295355,-0.0785022565,-0.0615273616,-3.5038565125,2.3017067564,1.7106290731,,,
1.2500000000,80,6.6063199597,6.8491291872,6.0016821718,3.0382493940,4.5287844051,-6.2300773525,2.5002065239,6.8553084922,-4.7705500262,4.4356334761,7.8688639262,5.7760993556,9.1059052289,5.9663914583,,,
1.2539062500,80,8.0352107057,9.3784990517,9.0580588747,3.4640141493,7.5577070646,-0.1630006661,4.3969801178,18.7938271864,26.3999612723,6.2490702773,10.1978685516,11.6168852902,10.1078546900,7.0495051200,,,
1.2578125000,80,4.2023657043,5.2635009786,6.5949971663,2.0297825908,6.7799095839,5.4148996816,3.7320865017,19.9455463514,41.7831405263,5.0470543326,5.8336729284,10.3145043386,5.6078551909,4.5773614676,,,
1.2617187500,80,-2.6319129440,-2.1659928313,0.6303002537,-0.1668885079,3.4677447281,6.5631729810,1.1157962343,8.9845006922,31.4010468215,1.9410390302,-1.6867933312,3.2691756620,-0.7880284084,-0.0531472999,,,
1.2656250000,81,-6.6828729767,-6.8331359800,-3.9573789258,-1.0708804255,-0.0497051808,3.5837108614,-1.4125477464,-6.1089896458,4.0756349949,-1.0756872679,-6.6209340381,-4.2799205371,-4.8839888727,-3.6187052370,,,
1.2695312500,81,-5.0645168389,-5.4663940169,-4.5172722662,-0.5303264621,-2.2024642870,-0.1675014074,-1.7594982948,-14.9977949344,-20.5703295373,-2.2872323597,-5.9148197427,-7.6049602132,-5.4556904584,-4.1740045282,,,
1.2734375000,81,-0.5814159583,-0.4953222802,-2.4738303156,-0.2736882747,-3.6300486929,-1.9012927729,-0.6750297125,-13.0810004144,-28.1009645867,-2.5552689550,-1.8928900066,-6.7030524012,-4.1139467871,-2.5187572682,,,
1.2773437500,81,1.8642982478,2.7159082079,-1.1991657744,-1.5565224288,-5.3726257584,-1.4366262128,-0.1128093351,-4.8628704199,-18.8969160577,-3.9149592323,0.7233203107,-4.0662159970,-3.5399404332,-1.7337746261,,,
1.2812500000,82,0.3441517496,1.2128185651,-1.9062318756,-3.3520460803,-6.8765306014,-0.8448867260,-0.9927240030,1.5753832886,-3.5918307331,-6.4357158746,-0.2852723709,-1.9016192012,-3.8105309225,-3.0038548277,,,
1.2851562500,82,-2.2251778324,-2.2664315511,-2.9358685077,-3.4935579645,-6.2518639401,-1.8540407740,-2.5148877862,2.3502955753,6.5161634246,-7.0093976123,-2.4662374974,-0.3560357836,-2.7748075613,-4.3686370844,,,
1.2890625000,82,-2.4398355372,-3.2363327967,-1.8941449019,-1.4719068640,-2.4604694117,-4.2767723990,-2.7249859054,0.0690098372,7.8328085269,-2.6463753730,-2.4581474036,1.3784336912,0.6666134082,-2.7448232507,,,
1.2929687500,82,0.8375797945,0.3095837338,1.8677088874,2.0213683738,3.7708275576,-6.1379856978,-0.6873233585,-0.0275254931,3.9441640643,5.7140247292,1.2421205761,3.9587636756,5.5770335176,2.5813914383,,,
1.2968750000,83,5.6545508880,5.6640242977,6.1623151506,5.3160161162,10.0048402427,-4.3266590795,2.5492730350,4.4622616385,1.5954529065,13.7588443620,6.7007794509,6.7485883187,9.4439373051,8.9483676507,,,
1.3007812500,83,8.2058288093,8.1674115308,7.9427568098,6.1665263301,13.0433164965,1.6103526413,5.3425966302,10.0275840928,4.6963295662,15.2023987702,9.9047474689,7.5703526329,9.7982113512,11.9086725780,,,
1.3046875000,83,5.2807303807,4.5765689394,4.9129886960,3.5253246846,10.3679676224,9.3062525311,5.3429826808,10.2146063540,10.4617236555,7.3349536632,6.8214954403,4.3233827340,5.4182339431,7.9969848903,,,
1.3085937500,83,-2.6338846176,-3.8428848313,-2.5987997401,-1.9388623480,1.2797048870,13.1864942419,1.7900585438,1.8024643471,10.9830774891,-7.1472636275,-2.6898371674,-3.2412956694,-3.4410041690,-2.4274451418,,,
1.3125000000,84,-10.4065110859,-11.8575138009,-9.8908824622,-6.9507066886,-10.2767585775,9.5286277046,-3.9522536814,-10.8076604147,1.5963879020,-19.2459499876,-13.1156510593,-11.1256210636,-12.6968810227,-13.3573820620,,,
1.3164062500,84,-11.9172778571,-13.0168974064,-11.6196419671,-8.1248650076,-17.4243765464,-0.4587651689,-7.8440566875,-18.5019701801,-14.3419620886,-19.7907640923,-16.5602508986,-13.3525701938,-16.1282292288,-16.8170744252,,,
1.3203125000,84,-5.3900811966,-5.1517053999,-5.1082229227,-4.2730784052,-14.8271693439,-10.9866910139,-6.4916204752,-14.2586195796,-25.7674536787,-6.6414042222,-8.6834393151,-6.9352576830,-9.6935898860,-9.0668111270,,,
1.3242187500,84,4.8764665423,7.2816947863,5.8011746815,2.3671336588,-3.5742355363,-15.3823058594,-0.4176339763,0.2389266960,-22.3152545864,11.9088746920,6.5577464216,4.8632104808,3.6470447850,5.4760724183,,,
1.3281250000,85,11.9228152994,15.8320893415,13.4194138694,7.8249359331,9.5384877225,-10.6959339099,5.6016166571,15.3890682199,-3.0005836713,22.2932664360,18.6281979683,14.0758419177,15.2030629564,16.6454822334,,,
1.3320312500,85,11.3562368496,14.2859536293,12.2210468507,8.6099780038,16.5174976151,0.2373712257,7.2807037102,21.3015252950,21.7471183888,16.9627162633,18.3272228344,14.4296895866,16.9395939432,16.6039842980,,,
1.3359375000,85,4.2114757005,4.0485416880,3.2395878551,4.2032593997,13.5006064534,10.8180483850,4.3002152736,14.4955079281,35.4541490609,0.6598264620,5.4513667686,5.8207908632,7.8307432898,5.6413235579,,,
1.3398437500,85,-4.3163509543,-7.4718631468,-7.2565814691,-2.3057064597,3.4221586826,13.9768875118,-0.5155602840,-0.0731321434,27.5958293179,-14.3645979755,-10.2715719065,-5.5571531689,-5.0976143624,-8.2409242305,,,
1.3437500000,86,-9.1358997891,-13.1744948293,-12.4045462524,-6.8130031000,-7.3169144940,8.3223474746,-4.1471716760,-14.0145786922,1.9170218269,-18.0221745762,-17.7394044021,-12.1619644356,-13.0825961403,-15.2488439785,,,
1.3476562500,86,-8.5142788839,-10.7570088410,-9.9512086672,-6.7176342923,-12.5324733079,-1.9616880327,-4.9213374704,-20.0330711361,-25.6757712227,-9.8839483521,-12.4868021296,-10.6759170915,-11.5442789886,-11.7883540471,,,
1.3515625000,86,-4.2217869599,-3.2729440255,-2.3147782695,-2.8195375578,-10.1655473729,-9.5876000480,-2.9480777290,-15.4211849370,-37.2188502425,2.4046088730,0.0183421408,-3.5117959084,-3.3064921764,-1.5834710681,,,
1.3554687500,86,1.1541209084,4.4068851589,5.7106178836,1.8392839911,-2.4026099149,-10.1426650157,0.2771472588,-3.1334446448,-25.0125724517,10.6955664323,10.5277926167,4.1995117153,5.4913896500,7.9588230744,,,
1.3593750000,87,5.2952123695,8.4760131635,9.7852980965,4.3856820096,5.9374766141,-4.1684585518,2.9934927522,10.5725896023,2.3778644820,11.2404531250,12.4746412648,8.3226750362,9.0444902670,11.1621579114,,,
1.3632812500,87,7.0606271799,7.4486633154,7.9404768451,4.2541871304,10.1614957627,3.5163425655,3.5552913771,17.7641764606,26.3992273355,5.5350061015,6.0154855727,7.1815862816,5.8484111968,6.7892327848,,,
1.3671875000,87,5.0348225940,2.5157138528,1.4292638832,1.7619034826,7.9121425545,7.3541355986,1.3083577018,14.3603457028,31.0764033299,-2.6745844853,-3.5425234881,1.7744254877,-1.0992771844,-1.6772820370,,,
1.3710937500,87,0.0007549233,-3.4115825503,-5.6805452798,-1.4341186033,0.5637782425,5.3112146256,-1.7398906085,3.0070517704,15.6355636204,-9.0056048763,-9.9508036829,-4.6326537170,-6.2068401910,-8.4555063616,,,
1.3750000000,88,-4.9985177068,-6.6932474233,-8.6708999558,-3.5092442247,-6.7075188822,0.0877405672,-2.7537725210,-8.4624363557,-6.6764263108,-9.3873292280,-9.3174202661,-7.6236395235,-5.8453787687,-8.9329470571,,,
1.3789062500,88,-6.5029455633,-5.5302248480,-5.7320397185,-3.0440092774,-9.3057794229,-3.7028612356,-0.9143515423,-13.2697630487,-20.3050082967,-3.0027148595,-2.8216227271,-5.0610239760,-1.3341236353,-3.3356020928,,,
1.3828125000,88,-3.9169334673,-1.4632858098,0.0299715293,-0.6772863624,-5.7613545830,-3.0053530378,1.6176123215,-10.0110771257,-19.9906736563,5.5860639203,4.0892814860,0.2905384874,2.9204341878,3.9425105159,,,
1.3867187500,88,0.5571771004,2.6306914245,4.3096326420,1.4254149931,0.8557872647,0.7861341163,2.4370369658,-2.2415673383,-10.6980254320,10.1091074091,6.9022788379,4.0562051024,3.3887036980,7.5013177290,,,
1.3906250000,89,4.0117394034,4.7963558624,4.9480547438,1.7793633111,6.3278173228,3.5556599223,1.3382865727,4.9233031712,-0.1024848851,7.7578509709,5.3619356864,4.4168642295,1.3034602786,6.0060043136,,,
1.3945312500,89,5.3859092234,5.0082850948,3.1693318613,1.3769084676,7.4276547947,1.6435894205,-0.6211150045,8.2174726342,8.7209669319,0.9555026603,2.5504616234,2.9850681996,0.0686958422,2.2227997211,,,
1.3984375000,89,4.3588420171,4.0499957817,1.5963321697,1.2870256592,4.0066876752,-3.7784763180,-1.9334939819,7.7115237289,14.8800498629,-5.5565001130,0.8774892775,1.9736547128,1.0467615067,-0.8713338549,,,
1.4023437500,89,1.2365008317,1.3317241892,0.8757420678,1.0955374155,-1.3108309584,-7.6288900672,-1.9676924705,4.3517872140,16.2957097484,-8.1325553799,-0.1755389961,1.2382058837,2.4391191727,-2.5126163586,,,
1.4062500000,90,-3.1285141067,-2.7315694199,0.0735345084,-0.1130254622,-4.4956767905,-5.6884385582,-0.7446519363,0.0575505286,9.6932895812,-5.3258885553,-1.9028541189,-0.2729151074,1.3933849206,-3.4051756747,,,
1.4101562500,90,-5.9696402229,-6.5220859382,-1.6843665794,-2.0779246730,-3.4853165591,2.0165112312,0.7769810715,-3.9500580622,-3.8832125411,0.7503478930,-4.1564312022,-2.5928921681,-1.8181609528,-3.5029591701,,,
1.4140625000,90,-5.1400997966,-7.1924913528,-3.1327049452,-2.8258838969,-0.1534483432,9.5849896616,1.8696032419,-6.8542947228,-16.2398389528,5.7560726011,-4.6045979280,-4.1747894493,-4.7181488815,-2.3520189955,,,
1.4179687500,90,-0.7776334209,-3.5385021714,-3.1793758183,-1.5266751036,1.8402497850,10.8481133968,1.2635594371,-7.2850518034,-18.3987737483,5.7549613397,-2.4644152644,-3.7520795447,-4.7501850035,-0.1161110449,,,
1.4218750000,91,3.2967621224,2.0327259643,-2.0668734350,0.7328502896,0.5664484661,4.2300746590,-0.4034220926,-4.1099805562,-7.7230707695,0.4581609806,0.8941384310,-1.7824814725,-1.9780771515,1.5805868583,,,
1.4257812500,91,4.2058403727,5.8709963146,-0.5160004269,1.8623384432,-2.0410215925,-5.6805042059,-1.9144998866,1.7158799294,8.3600153894,-5.9748505394,2.6011443619,0.7953725912,1.4411330383,1.6883864887,,,
1.4296875000,91,1.9981716402,5.5454169443,0.6376821280,1.6276709358,-2.8036912736,-11.5427320788,-1.8425959193,6.9938120070,18.1566905772,-8.0485946140,1.9514419196,2.5846125968,2.9970627355,0.9261635525,,,
1.4335937500,91,-0.6347138130,1.9207823753,1.3518931050,0.7641489802,-0.7380456037,-9.1373286122,-0.8605064272,7.5469915743,14.2631483586,-4.3384872503,0.2610721962,2.8369693757,2.5612632969,0.3082459685,,,
1.4375000000,92,-1.9300297369,-2.0234165863,1.2977020240,-0.2494606877,2.2601944190,-0.4791320313,0.5768245867,2.3093727235,-0.1873730310,2.3415467152,-0.6053358177,1.3419257823,1.4607016120,0.1332927421,,,
1.4414062500,92,-1.1561542313,-3.3947437237,1.1064141430,-1.1727193409,3.5691307785,8.2070290226,1.6254861369,-4.4982486388,-14.9480754806,7.4723339141,-0.2279506482,-0.7843852772,1.2734172602,0.0433661659,,,
1.4453125000,92,0.9999218470,-1.6733300313,1.6692068330,-1.2608771164,2.2870784427,10.8531013730,2.3592870977,-6.7224001208,-19.4977310069,9.3210992305,1.4712873166,-1.0106771493,2.4868964858,0.4534218390,,,
1.4492187500,92,3.0571290995,1.6198319929,2.8264940186,0.1776933564,0.1512017172,6.0311841415,2.1649557172,-2.4160568516,-11.0874685077,7.8131781698,3.2589445402,1.0760220901,3.4333471255,1.4700813852,,,
1.4531250000,93,2.7410853092,3.4300773417,2.8882418847,1.9633681864,-1.1040355999,-2.2605957294,0.8170142254,4.3910313605,4.6343155112,2.9572566013,3.0315318862,3.3065080233,1.2561077661,1.9738145546,,,
1.4570312500,93,-1.0434685864,1.8881630563,-0.3614449583,1.9118934196,-1.1034755373,-7.9352407747,-1.3129374340,7.0745187347,16.9155070108,-4.9298248866,-0.5468035481,1.9627522115,-4.3065805993,0.3881273245,,,
1.4609375000,93,-5.5968019804,-1.9585022678,-5.4237900000,-0.6953753605,-1.1664845267,-7.6852803368,-2.8023516814,3.5795933019,17.6839819660,-12.1826947942,-5.4154055280,-2.7182213757,-9.5783999440,-3.0299998635,,,
1.4648437500,93,-6.6177595775,-4.6381522716,-7.8983899763,-3.4267301619,-1.2516815829,-2.9629353525,-2.4796934477,-2.9747145343,6.7369312649,-12.9735960657,-7.1967736270,-6.5030661652,-9.4125123971,-5.2164246207,,,
1.4687500000,94,-2.0496825191,-3.6515733234,-4.6008759228,-3.5359966584,-1.1754453925,2.1629671097,-0.5670344925,-7.4384247849,-8.2763480416,-4.6352399217,-3.4450476106,-5.7215048973,-2.7072294246,-3.6240027116,,,
1.4726562500,94,4.7061787230,-0.0556636474,2.3977731558,-0.4866747207,-0.5187509073,4.2715708825,1.2109574123,-6.6188149712,-17.0359005732,7.4299894955,3.5592618605,-0.6043903749,6.1656120821,1.1290018893,,,
1.4765625000,94,8.0851598193,2.7808829528,7.6074078777,2.7710198180,0.1776506022,3.3002151451,1.5369581015,-1.3082090356,-13.6624346811,13.3743108046,7.9133713262,4.9416935607,11.0560240278,5.0331542378,,,
1.4804687500,94,5.4733444043,2.6719194825,7.4408219550,4.1264625499,0.7347197206,0.9661872044,0.4624706029,4.8604431146,0.3315885256,7.7223185590,5.9207559244,6.9980779604,8.9313789997,5.3658570369,,,
1.4843750000,95,-0.4298886847,1.1025523780,2.5702452446,2.9466663594,0.9527866433,-0.7606384061,-0.5377066459,7.6764559448,16.2651725200,-4.3819633699,-0.2078127239,4.8888509232,2.5608334146,2.5089538934,,,
1.4882812500,95,-5.3909449665,0.4320824660,-2.4586956474,0.4703502572,1.2981650659,-1.3587426945,-0.1018255732,5.8962882136,24.1214086353,-12.2858198631,-4.7490405855,0.9458093595,-2.8791540184,-0.7505977992,,,
1.4921875000,95,-6.0330091960,1.0211156500,-4.7072046424,-1.9590706053,1.6853490480,-1.1670667390,1.1224873507,0.8455109567,16.9225915276,-8.9928255347,-4.2105399697,-2.2633398375,-4.5172548808,-2.7776923687,,,
1.4960937500,95,-2.8060441696,1.5477615367,-3.5175675674,-3.0264705180,1.4750578738,-0.6586269609,1.4180857719,-4.1971499745,-3.7831450081,3.1615876880,0.0421658475,-3.6689404933,-3.8922401332,-3.2137295124,,,
1.5000000000,96,1.6580769524,0.3674723000,-0.8716762173,-2.2425133916,0.6661357046,0.1349212342,-0.0512096898,-6.5532293320,-26.0853997422,14.3178555355,3.4284252038,-3.2096278874,-2.9079248008,-2.3932729836,,,
1.5039062500,96,4.6706256377,-1.7597968774,1.2576531023,-0.4973659485,-0.5964713543,0.9931765380,-2.1325474917,-5.6399262504,-34.3892460685,14.9558696276,3.1258002111,-1.9518739424,-2.5222956833,-0.5607246110,,,
1.5078125000,96,4.0053782433,-3.5065957381,1.6113060692,0.9230735807,-1.9634113195,1.4667143028,-2.4942207620,-2.5348148707,-21.6479839365,3.7554680048,-0.8244165620,-0.8096883321,-2.0224706767,1.0841819631,,,
1.5117187500,96,0.3420482178,-3.8800524305,0.4578554301,0.9810776253,-3.2108343377,1.2217331478,-0.9329375610,0.9014897945,3.4611687596,-11.0124158647,-5.6176037264,-0.3837585602,-0.7265007135,1.4476888328,,,
1.5156250000,97,-3.3474582147,-2.1566551498,-0.8418660277,0.3477845491,-3.3387865369,0.3453338586,1.2459722823,3.3136201931,23.5048823584,-17.9938139534,-7.4635898067,0.0621611533,1.4346702497,0.3690824002,,,
1.5195312500,97,-4.1656947936,1.1052461963,-0.6375821631,-0.1050133128,-1.7022003359,-0.9458263272,2.6260934068,4.3975333521,26.6960524911,-11.4563407281,-4.2126480406,1.1803724311,3.9172197330,-0.4629810111,,,
1.5234375000,97,-1.2414307057,4.2313481374,0.7623891925,0.0950365075,1.2756119084,-1.5404269951,2.3786574101,4.4224971923,14.6968243288,3.1346707848,3.3120717937,3.1134674684,6.0215470061,0.3388778228,,,
1.5273437500,97,2.6735541050,5.0035705557,1.8877834122,0.7798520950,3.9259449294,-0.9272487732,0.8623033654,3.3045518415,-0.6012765442,13.8647399248,10.4180262687,4.2116853000,5.5988572518,2.1498880336,,,
1.5312500000,98,4.1884713866,2.7174327078,0.8439051450,1.1285750197,4.5932118376,0.2126725508,-1.2898339948,0.6992284168,-9.0830731954,12.4688699604,11.4120224169,2.5487290753,1.4183714043,2.7164065965,,,
1.5351562500,98,2.0608524064,-1.2771497641,-1.7216368160,0.3105912393,2.4398261282,0.8778429501,-2.5594712457,-2.8185495387,-8.3077680700,1.1078956205,4.4515665529,-1.6606255278,-5.4897431124,0.1956133433,,,
1.5390625000,98,-2.3925919799,-4.3268069879,-3.6704373583,-1.2707616995,-1.4520732514,0.2170971341,-2.3957907814,-5.5896273447,-2.5778504932,-10.2141547848,-6.1125086332,-5.8913424983,-10.6865437377,-3.9828423024,,,
1.5429687500,98,-5.3004078852,-4.5444594586,-3.0059999571,-2.6596410136,-4.5325559244,-1.6587366612,-1.1516911081,-5.2851251668,2.7636614643,-12.1268226255,-12.6562814890,-6.6939144592,-9.9116220399,-6.2043177840,,,
1.5468750000,99,-4.0617982516,-2.0234108749,0.4551086063,-1.9076139451,-4.7911530740,-3.1386891945,0.1482694108,-1.2466893160,4.5181368507,-3.3323444100,-10.4340017636,-3.1320183938,-2.3173949717,-4.3797472037,,,
1.5507812500,99,0.7581654114,1.6740235018,4.4512892167,0.6726266304,-1.6422392713,-2.3617525921,1.1467805171,3.9992796763,1.6503805375,9.1857310621,-0.9044044694,3.1002098833,7.9903435940,1.2777647735,,,
1.5546875000,99,5.4732413704,4.2673037686,5.8247482603,3.1548590080,3.3271782907,1.1036366197,2.1292890218,6.7220592223,-4.4831745159,15.3870784070,8.9606044745,8.0095061739,14.1943886987,7.0295210012,,,
1.5585937500,99,5.9383016480,4.0698390141,3.2324614578,3.3582552577,6.7154153361,4.9945914767,2.9020992037,4.0906829750,-10.1501352478,9.8810936691,11.9150482234,7.9951629535,11.7143691123,8.8467857639,,,
1.5625000000,100,0.7669048986,0.1303925040,-3.2064393118,0.5104621017,3.3310699517,4.2089353800,1.1141267281,-4.2254246758,-8.7346566086,-9.6084673232,2.0536950761,-0.3653830999,-1.7714500006,1.5870327184,,,
1.5664062500,100,-0.8230599413,-1.0554767290,-3.2239258240,-0.3759773561,2.1404032139,3.1661735433,0.4389602932,-3.4189059201,-3.8952209282,-7.2983062586,1.1055370542,-1.0247454424,-3.8211932522,0.7689199442,,,
1.5703125000,100,-3.7710117702,-3.3202370759,-4.3829493640,-1.9000333965,-1.5154923197,-0.7057059816,-1.0461229364,-5.5790184682,1.8988223454,-12.0631189506,-5.2344444963,-4.8022039850,-9.2519646949,-3.8296595505,,,
1.5742187500,100,-4.2738618817,-3.4193053920,-3.1176003820,-2.4203752227,-5.6134096209,-5.2021832933,-2.8549656741,-4.3780345860,8.9886914695,-12.0036923181,-9.1370484031,-6.6117291926,-10.9046604382,-7.5849662254,,,
1.5781250000,101,-1.4751610795,-0.3925894246,0.6899825987,-1.6545189954,-6.8127347794,-6.0053510149,-3.0504691169,1.2742875101,12.3740707546,-2.5451580918,-5.9846766028,-4.2577119765,-5.3301812468,-6.5976477019,,,
1.5820312500,101,1.5658559215,2.7384484240,2.9278547426,0.1606250836,-2.8205171975,1.3792883049,-0.8290693062,7.7602147621,5.5564355691,15.1674317388,2.1537656394,1.3726490062,4.7316141630,0.1222257605,,,
1.5859375000,101,2.9486136529,3.0813180836,3.9960047761,0.6858379546,-0.0104640034,0.5438081216,0.4677091309,6.0192469430,1.8698191183,10.7990338572,4.3867974592,2.8892216420,6.8734017961,2.3703029786,,,
1.5898437500,101,3.0007813858,2.7400509780,2.7252933858,1.1256785258,3.1652351577,4.2762482707,1.8520967143,4.8208704774,-6.4018240091,11.0114633242,6.6455712047,4.3044092622,8.7015351311,5.3604546001,,,
1.5937500000,102,0.1229537266,-0.0914595950,-1.0559097568,1.1830033011,4.2538452011,5.5069945256,2.1323860464,0.4920789487,-12.2387660558,6.8119944894,4.2846709069,3.5081493031,4.6001300566,4.9018706055,,,
1.5976562500,102,-3.6907365677,-3.6148746473,-4.3193256296,0.6091218894,2.4135976135,0.8779388950,1.1810655970,-5.0395698779,-8.3764689598,-2.3406193805,-1.7211827258,0.5995311569,-3.8042263587,0.7845888775,,,
1.6015625000,102,-1.6633456479,-3.3778122786,-1.2774945029,0.1478050860,1.9406305732,-5.3266814414,-0.6871607380,-7.2320038891,8.8516083158,-12.1276106639,-4.3543661115,-1.4517332358,-6.4336113559,-1.9847745480,,,
1.6054687500,102,-3.2244830688,-3.0140267569,-2.2063122521,-0.6420734924,-2.0192089965,-6.4476119257,-0.6238862270,-5.4497780523,5.6452387170,-10.3665190985,-5.3381764691,-2.6659515147,-7.6632851481,-3.8108371021,,,
1.6093750000,103,-0.4450646826,-0.4431734792,0.9177378852,-0.5570575202,-2.8518372996,-7.1804637644,-1.1502674389,-2.2785170148,11.5315484377,-8.3672852022,-3.1303985187,-2.4347140941,-4.2554873776,-3.2023963153,,,
1.6132812500,103,4.6416994677,3.1093791010,4.6314230883,0.1136651937,-0.4227364510,-2.0129511990,-1.1341963635,2.1334757873,11.4339495492,-3.3192944041,2.2544489164,-0.3819457288,3.4870645283,0.2677113552,,,
1.6171875000,103,7.2235874200,5.0019235441,4.9996642931,0.1861015453,2.6613646739,7.6248181203,-0.4902242560,5.0478282337,-0.3529951716,3.5551045572,6.2979755326,1.4991568786,9.5229752102,3.6269571946,,,
1.6210937500,103,4.4720527974,3.6291965172,1.2803163062,-0.4735912734,4.0695135347,14.2916130361,0.7204468008,4.9830204193,-16.4042790852,8.6529375954,5.5087590975,2.0397534580,9.2307708545,4.1562316843,,,
1.6250000000,104,-1.5744449735,0.0557905460,-3.2348030432,-0.7829811680,2.0435012846,11.3691898215,1.7147763187,2.8953252537,-23.9506035887,9.4927604117,1.0372580909,1.2953711768,3.1679551226,1.6294419764,,,
1.6289062500,104,-6.2434363594,-3.0652450331,-5.4262614095,-0.0131605561,-2.0408971459,-0.2332784870,1.8201778912,0.5694406427,-16.3363889245,5.5300455071,-3.2454167100,0.4389632941,-3.9012444934,-1.4738784707,,,
1.6328125000,104,-7.0280971472,-4.2448957659,-4.2231373123,0.9911907118,-5.4470577358,-12.7133647789,0.7393899068,-1.1650107636,0.9602852933,-1.0466393870,-5.1527988080,-0.2565497579,-8.3037780235,-3.4202848916,,,
1.6367187500,104,-4.3438162361,-3.2471387432,-1.4581246778,0.8626041428,-5.5284466935,-16.9227575830,-0.8687018983,-2.8758825555,15.4493365560,-6.3577860737,-4.5282729789,-1.4367466952,-8.7297904351,-3.9361719183,,,
1.6406250000,105,-0.3312599735,-0.4695155890,1.0580990883,-0.3653500509,-2.3202816240,-9.6809129203,-2.0820843614,-4.7804867954,18.5302162322,-7.6180963805,-2.6922696614,-2.9069151602,-5.6635846373,-3.0543868081,,,
1.6445312500,105,3.8594487581,5.8301407947,2.4598735119,-1.3338695583,1.8260179124,8.7148406964,-3.2904921549,-11.4414152015,-0.3016670382,-4.8972605386,-3.1535545302,-7.0100376761,-2.8469960431,-3.8292317124,,,
1.6484375000,105,5.2362434320,2.8073125734,5.7578189269,0.4999925907,4.0865302097,6.8555527005,0.2915230643,5.2517510921,11.4768643149,3.5314622772,8.7415836873,2.8390688992,11.7157073198,6.2444716957,,,
1.6523437500,105,3.3040088853,-1.3577094481,3.5113776057,0.4626202550,3.5946067791,1.5751526237,1.8252524154,10.2909546099,11.7386231270,3.4856459131,9.3735577768,6.5421930849,11.9098989466,7.7397126178,,,
1.6562500000,106,0.1362020806,-3.7641145858,-1.0989210305,-0.7221083043,1.9056445043,-0.2957745393,1.7064535486,6.8108965473,4.4221629587,-0.7363239777,2.9690819431,4.5302997375,3.6636621700,3.3939280637,,,
1.6601562500,106,-2.2740626213,-2.8920966495,-4.2172947123,-1.4074777283,0.0973014026,2.2353972155,0.8475729795,0.7731153568,-6.1181154057,-2.9181681103,-4.6155950990,-0.1062024865,-5.2147228457,-2.6473686865,,,
1.6640625000,106,-2.5340768674,0.2296830698,-3.5890429175,-0.6433006319,-0.9947247959,5.3308567469,0.2059933945,-3.0309446729,-14.5451500985,0.2735952859,-7.9395626872,-3.2946769764,-8.7864535029,-5.6182586078,,,
1.6679687500,106,-0.5171174351,3.0112745810,0.0001630038,1.3114740232,-1.1354999358,5.2524215543,-0.1236066856,-3.2548483746,-16.7626604218,6.3868984097,-4.9866258539,-3.0503621133,-5.2834423224,-3.7431613147,,,
1.6718750000,107,1.8673769405,3.6592750543,3.0582833923,2.6101767968,-0.9762885171,1.4631341541,-0.4217623283,-2.0874231102,-11.8815408771,9.3634019404,1.5725614826,-0.3489658196,1.9092498844,0.9486016647,,,
1.6757812500,107,2.6663940920,1.9069277292,2.9095774832,1.8922979247,-1.2683145594,-3.4554704373,-0.8317529467,-2.1127211011,-2.8531574325,5.6362692661,6.5604819600,2.0354191516,7.4956900024,4.3686460358,,,
1.6796875000,107,1.2908236980,-0.8000039809,0.1593599609,-0.4822456124,-1.4403900216,-7.0445564176,-1.1199879492,-3.1471054846,5.7210911430,-3.0516652844,6.5241171070,2.1359507567,7.2511022214,4.0858058037,,,
1.6835937500,107,-1.2547250305,-2.3131119705,-2.2250611483,-2.2124021552,-0.5628637369,-7.1057916969,-1.0433155750,-3.2387057641,9.7208712653,-10.3995644150,1.7970942521,0.1275722122,1.6950669708,0.7185724617,,,
1.6875000000,108,-2.7474121440,-1.5083355192,-1.6843718335,-2.1155049980,2.3444238972,-4.3773932071,-0.6213366421,-3.0710576053,4.2634844674,-13.5780354806,-4.3132791069,-2.6457356002,-4.9344911934,-2.8800489322,,,
1.6914062500,108,-1.2170407506,1.4658652800,0.2122545447,0.7941846724,2.4272499750,3.8533712449,1.3383609375,5.6577520407,3.6657343990,-6.1355079861,-8.7547943249,-3.7191342085,-10.5294007760,-4.4110537897,,,
1.6953125000,108,-0.0096110382,1.0606375099,0.0692443190,0.8207510228,-0.5664742410,6.7211938954,1.7945014653,7.8541669894,3.8872692857,2.1310166285,-5.8979318706,-1.4753961140,-7.4756217014,-3.1127882412,,,
1.6992187500,108,0.4537229586,-1.4421206948,-0.7792799747,-0.1441939394,-3.2129247421,4.2629782300,1.1776007743,5.5284313686,6.2405278101,7.7615529799,0.2869483209,1.9708195265,-0.4074233936,-0.6990995928,,,
1.7031250000,109,0.3229741628,-3.0768818647,-0.7424936182,-0.4508911050,-1.9327673573,-0.4687055037,0.1547973538,1.6589546301,7.6015488307,9.3518036131,5.6443082379,4.1962894283,6.1291751380,1.7970283292,,,
1.7070312500,109,-0.1295785981,-2.0346124548,0.6060348013,0.3384313976,2.9038323365,-3.3089120473,-0.7259418184,-1.7249249070,3.7210690799,6.4729524376,7.1026897401,3.7441005234,9.1100777393,3.4502978406,,,
1.7109375000,109,-0.6379294773,0.5702151150,1.7355437819,0.7175027608,7.0519768578,-2.6059387059,-0.8405634910,-4.2137629571,-6.0987097973,0.4664453004,3.9131721925,0.6949232459,6.6918115957,3.4864421762,,,
1.7148437500,109,-0.6817323435,2.4489308621,1.3443042296,0.1769231034,5.5965252940,0.1263307896,-0.8142325764,-5.8833321131,-16.1571240981,-5.2734970921,-1.7949812798,-2.7966194466,0.6217805222,1.5614092537,,,
1.7187500000,110,-0.2168724685,2.5809091981,-0.1354928955,-0.7072769429,-1.9919415879,1.7845460956,-0.8991230050,-5.5132658520,-17.6448369803,-6.8083529342,-5.4344728865,-4.2092221761,-5.0251301971,-1.3318397283,,,
1.7226562500,110,0.8223484083,1.7010884258,-1.2329341173,-1.0662783141,-10.2196372942,0.8905266780,-0.5540336441,-2.1480788034,-7.6971756836,-2.9233146705,-3.7839313869,-2.5587327650,-6.1800605105,-2.9904984571,,,
1.7265625000,110,1.7047514321,0.6402101308,-1.1778721218,-0.5508990296,-12.4217113464,-1.3331565882,0.5869658806,3.0030449234,7.8914066130,3.6247926450,1.6956412715,0.7616399971,-2.6658785440,-2.3324679921,,,
1.7304687500,110,1.9346839583,-0.6685498792,-0.2619549497,0.7958786943,-5.7304191843,-2.8916396966,1.7363390046,6.8388310476,17.7169919752,7.2269016837,5.7878323585,2.9552025801,1.9156507481,-0.3291050386,,,
1.7343750000,111,0.9256357986,-2.1178228394,0.7912318488,1.8022469409,5.6176978750,-1.5294603746,1.9035523408,6.7607525135,14.7651717109,4.7774308178,4.5165604617,2.6554982578,3.9328280808,1.4031224867,,,
1.7382812500,111,-0.6085452945,-2.6334865135,1.2550982850,1.2620155823,13.7012350723,2.3490264016,0.8117699854,2.4867288964,2.3980286791,-2.3241506799,-1.3589757271,0.4225782198,1.8567110959,1.4048220052,,,
1.7421875000,111,-1.9422081775,-1.7693515820,0.6903337883,-0.6047757704,12.6986054849,5.9943185518,-0.8422098511,-3.3041650384,-9.2855303289,-9.1361584528,-7.2741011131,-1.9293301763,-2.7121319190,-0.0808002341,,,
1.7460937500,111,-2.4835899059,-0.1861463144,-0.9705619016,-2.1312763645,3.4149491773,6.2185354436,-2.4433586630,-7.3060479788,-11.7110162641,-10.5770825743,-8.6730426616,-2.8164672164,-6.2832383376,-2.0475253424,,,
1.7500000000,112,-1.9852871363,0.7829220205,-2.4202709995,-1.9902541805,-7.4544513323,1.7289670844,-3.1976781748,-7.1021858070,-4.8785528951,-5.5364290952,-4.5539079799,-1.8600618707,-6.0674818537,-2.5726170841,,,
1.7539062500,112,-0.7695876356,1.1929136149,-2.2770487008,-0.2957415804,-12.4922707494,-5.3141875544,-2.2369083281,-2.5926253942,3.7645202751,3.0073722347,2.5825546499,0.1361765650,-0.9126911547,-0.8998362884,,,
1.7578125000,112,1.0972695315,1.7218816986,-0.1355866261,1.5224254091,-8.5177920731,-9.7532578762,0.4987386625,3.5215100763,6.2242635387,10.1746350735,8.6450353196,2.1037820769,6.5624130460,2.4033022812,,,
1.7617187500,112,3.4098821900,2.8817233047,3.1390089434,2.3282482900,0.9238112276,-8.0913889987,3.4998688514,7.5728222312,1.3638772864,12.1844985104,10.6100425861,3.7141344988,11.7774437672,5.5713123421,,,
1.7656250000,113,5.0374302228,3.6017722453,5.4688455623,2.2255808387,8.8000545865,-1.1521451790,4.7446925823,7.1791534386,-4.7935286653,8.5716472014,7.4733062422,4.2310021231,11.1444805496,6.1487262364,,,
1.7695312500,113,3.8484581385,2.1705591849,4.7055493959,1.2075278208,9.9246166226,6.4368772082,3.1284686006,2.6863717239,-5.1528757538,1.1414272513,0.4808722923,2.6149126047,3.7660428159,2.7281963064,,,
1.7734375000,113,-0.7771583622,-1.8208209797,0.0945475667,-0.9261816383,4.0803049472,9.5491700085,-0.2960778216,-2.8345140337,2.0272651052,-6.8619639409,-7.1508138700,-1.3549271743,-6.7326623352,-3.4416940637,,,
1.7773437500,113,-6.0636995068,-6.3397172240,-5.9876054921,-3.1235150435,-4.4916650865,6.6660631610,-3.2506140208,-5.8258467169,11.2786048172,-11.9702982071,-11.4213015480,-5.7493542117,-14.4367211406,-8.4044872009,,,
1.7812500000,114,-7.8360302504,-7.4593843132,-8.9849007561,-3.8129583341,-10.1422808256,-0.0019303037,-4.0679488184,-5.1413329016,14.0250799164,-11.5326189170,-9.9761711444,-7.5749163690,-14.7370855926,-8.5834935645,,,
1.7851562500,114,-4.4785050734,-3.8414877934,-6.1872447437,-2.0460282010,-9.0825605177,-6.2734667831,-2.6111750834,-1.9330009661,5.3275819537,-5.3506218034,-3.4893288798,-4.7598159513,-7.1814240414,-3.5783417213,,,
1.7890625000,114,1.6436748127,1.8461919808,0.6809269636,0.9013452884,-2.2318453689,-7.8735714856,-0.1718258019,1.2404628848,-10.4354038910,4.1403601031,4.5048947739,1.1422048905,3.7758738431,2.7019321198,,,
1.7929687500,114,5.8648640562,5.7000292206,6.6187594067,2.7970046817,6.3985512637,-3.7182216931,1.8111668851,2.5934293390,-22.1186773421,11.7445606168,9.5656972368,6.2850341023,11.9714009343,6.1419422722,,,
1.7968750000,115,6.0072800234,6.0359568672,7.8454567002,2.8782824145,11.0723931240,3.1825982344,2.3168981246,2.1912078104,-20.5763461793,12.5865150875,9.1108358093,7.2296832853,13.4763847531,5.5169506663,,,
1.8007812500,115,2.9199814357,3.4190637319,4.6675333502,1.6127586751,8.9291864485,7.5378483135,1.4282258610,1.0181835146,-6.1531959776,5.5957706675,4.0789188601,3.8048671064,8.2345973672,2.8535428756,,,
1.8046875000,115,-0.6466209313,-0.1854565554,0.2622793485,0.0944667560,1.2606948029,5.9144955998,0.3436446881,0.0050161272,12.0027945754,-4.7486763582,-2.2561013155,-1.2578953794,-0.1343518587,0.3964052492,,,
1.8085937500,115,-1.7198538433,-3.4867459768,-1.9357793961,-0.7808625665,-8.1823586801,-2.1233604090,-0.2765019821,-0.7469388429,24.8588501248,-13.4459548644,-6.8144896642,-5.4580201710,-7.3370526393,-0.2064059235,,,
1.8125000000,116,-2.6870044091,-2.8522811243,-4.1560754277,-1.6416860154,-9.4447007417,-9.9662155755,-0.7150024250,-1.1263600555,16.5215221886,-6.0013259087,-5.9956417715,-3.6154624507,-10.4210878398,-2.7996635393,,,
1.8164062500,116,-2.4136787679,-1.0419295728,-4.2775878564,-1.4606797694,-3.7303781058,-6.4333181012,-0.9679628693,-1.3575614495,1.3296090728,2.4840846818,-2.4158973292,-0.3506664468,-6.5297757815,-4.0515175234,,,
1.8203125000,116,-2.0860984560,0.2692288998,-2.6480254095,-0.8276463058,1.9501017651,2.1581858497,-0.3790568311,0.1757129520,-8.4141788199,5.7490693292,1.1415486249,1.7469246049,0.1400563641,-2.9546025960,,,
1.8242187500,116,-1.3217992830,0.9736271107,-0.0925658896,-0.1067108492,3.7093015371,8.4814013875,0.3773369936,2.8468750463,-8.3097868509,2.9393772541,3.1589196635,1.9316222492,5.3924564646,0.0028282245,,,
1.8281250000,117,0.2859290395,1.2937274056,2.2658581595,0.6609091411,1.9021928166,8.5178256603,0.6084796421,4.2116748552,-2.1933782619,-2.2400381566,3.5975618175,0.8815139893,5.9710065452,3.0341687218,,,
1.8320312500,117,2.1915916730,0.5068745532,2.8825002962,1.1141324215,-0.0135034938,3.4095964253,0.0034519460,1.6262955356,1.8943102141,-5.4503342847,1.7441130601,-0.8870140345,1.2978385968,3.3352004866,,,
1.8359375000,117,2.4847502064,-1.5215907091,1.2955828811,0.7602076288,0.2498446342,-3.1840014864,-0.8932061047,-4.0331476003,-0.0920934073,-4.3567022319,-1.4035062060,-2.8004267826,-4.4044703903,0.5540656790,,,
1.8398437500,117,0.7818689655,-3.0780706150,-1.1792443668,-0.2425957387,1.4766782953,-8.0645508095,-0.8889901289,-7.8307045040,-5.3782256467,0.8520311069,-3.3041881914,-3.2581243516,-5.3893684800,-2.3123921612,,,
1.8437500000,118,-0.6632101208,-1.7975869886,-1.9655445436,-0.3400726319,2.0079821464,-8.9449072225,-0.0206187234,-5.5462519075,-7.7980346214,6.9988010227,-1.8342091875,-0.8034681957,0.1145921180,-2.0796732871,,,
1.8476562500,118,0.1900078314,2.5256554968,0.3358820732,0.8229454218,0.9242108822,-5.5044580790,1.0294101717,2.3367689530,-3.6956959623,9.6623930039,2.4638248341,3.9948391669,7.8441264869,2.0814523767,,,
1.8515625000,118,2.4572048210,6.4928437521,4.1623887643,2.0922438931,-0.8118671873,0.7171491375,1.3910857890,9.5080482727,4.5054033388,6.7781466921,5.9929122451,8.0631390435,10.8132207371,5.8440909221,,,
1.8554687500,118,3.0015687420,5.7809542567,5.3253670108,1.4558665980,-2.7550314417,6.2694353607,0.8858106637,9.4738048863,10.2918992255,-0.7414144117,4.7836908299,6.7381445900,5.1835118196,4.4198394990,,,
1.8593750000,119,0.0854797204,-0.3211274410,0.9674643619,-1.1215672768,-4.2006971718,8.1659573584,-0.4966331785,1.3698681833,8.6220385503,-8.4180423867,-1.8208740496,-0.3920744302,-6.3035989722,-2.9390126762,,,
1.8632812500,119,-4.3904863979,-7.7369562475,-6.1222843288,-3.9215809118,-4.5240254524,6.0048394718,-1.5855693535,-8.5431711829,0.4246703048,-11.4649508890,-9.1162282635,-8.9807210345,-15.0612716533,-10.6362967990,,,
1.8671875000,119,-6.6737722023,-10.2730890988,-10.1118644702,-4.5773257363,-2.2342366551,1.4258335659,-1.1493380866,-11.7673767158,-7.9093607559,-7.6456164634,-10.8530912026,-12.5306311679,-14.1183403456,-11.3182081362,,,
1.8710937500,119,-4.3203942154,-5.6280963754,-6.7284683983,-2.2516340318,2.5636933084,-2.6285546451,0.3966365764,-5.7339844274,-9.5900471806,-0.1106115890,-4.8509690478,-7.8068287987,-3.6210998958,-3.0010372330,,,
1.8750000000,120,1.3754017206,2.7486774252,1.7358741782,1.7840524456,7.1900741200,-4.3013868322,1.7106907017,4.3231362173,-3.5987575025,5.7758152536,4.9529413025,2.1434014207,8.5259446497,8.2776300055,,,
1.8789062500,120,6.0679348470,8.4675234644,8.6741553852,4.7891676872,8.0798802138,-3.3328087941,0.7588964188,9.7327454628,5.5084811362,6.0210923002,10.7735332386,10.1905152424,13.2009505625,13.3801989809,,,
1.8828125000,120,6.2300445538,7.9649956993,8.9552067648,4.4259543027,3.6852259167,-1.4086237152,-1.7474138805,6.4855145229,10.9583642855,2.2079797608,8.7892561629,10.8196724800,8.1285056497,8.7124582670,,,
1.8867187500,120,2.2535244301,3.0517177394,3.4313560536,1.3289770044,-3.1951489285,-0.2247812947,-3.4268708498,-1.3219143548,8.9789196925,-1.1281087192,1.5876712989,4.6913687858,-0.8622407514,-1.4059436350,,,
1.8906250000,121,-2.3359922622,-2.0130922598,-3.0279829735,-2.0359617111,-7.7262671099,-0.1627886108,-2.2466851762,-5.9736807260,0.6647537760,-0.4204536570,-4.4462168057,-2.9033667777,-5.5769411363,-8.7086707535,,,
1.8945312500,121,-4.0012927091,-4.2608471302,-5.4886082890,-3.0857954850,-6.8116570147,-0.0659748527,1.1844567566,-3.6843844721,-8.4411371889,3.4675426430,-5.0019416408,-6.3293366600,-3.2149777985,-8.0674605149,,,
1.8984375000,121,-2.3315135838,-3.2482580422,-3.5157362488,-1.4410263732,-1.6341894751,0.5975345024,4.4470419547,2.4931901058,-12.9926125535,5.8148422533,-1.4103479404,-4.2010259614,1.8995722143,-1.8064143020,,,
1.9023437500,121,-0.0073806030,-0.9470598708,0.1417435607,0.8112677792,3.2437671192,1.5747800220,5.1471571585,5.7149048965,-10.3917661058,2.9764530797,2.0751491438,0.2091435145,3.5705852333,4.2194674836,,,
1.9062500000,122,0.8722551782,0.7233522668,2.4422218836,1.6109197535,4.7439891970,2.1049108600,2.8259756966,2.8866885041,-2.2021582174,-4.0788674878,2.2809672498,2.7222166338,0.3063829451,5.8146491108,,,
1.9101562500,122,0.5237336219,1.2203622534,2.6068087358,1.0958269602,2.5275757178,1.0299562287,-0.9112651725,-2.7275943102,7.0698683549,-10.0281670206,0.0568969521,2.1420981639,-3.9650562378,3.1271946413,,,
1.9140625000,122,0.2030080972,1.1040553746,1.3737383098,0.2610198967,-0.5846702369,-1.3132113603,-3.8713147602,-5.4065865030,12.3116011445,-9.3412788869,-2.0028788987,0.2496143971,-4.1415490010,-0.5847716484,,,
1.9179687500,122,0.7080711819,1.0167384592,0.2075948428,-0.3161393290,-1.6204684524,-3.0512974463,-4.5673816055,-2.9734391998,10.6059351727,-1.6104737190,-1.9093681465,-0.8191770638,0.1022281559,-2.5195906595,,,
1.9218750000,123,1.3968292732,0.6208771631,-0.6207352197,-1.2932254730,0.2267621739,-2.1541108342,-2.6112511204,2.0834419326,2.9687187343,7.8744812556,-0.5641507318,-0.7015024446,4.5049546710,-2.2282676459,,,
1.9257812500,123,1.1216918112,-0.5768733454,-1.3933839420,-1.8380898520,2.8087781216,1.2748551580,0.2853754919,4.6123818733,-5.1891901955,11.5409154303,0.1867758084,-0.6830292225,4.4766646253,-1.4801887478,,,
1.9296875000,123,-0.3943425836,-2.3078349502,-2.1488005633,-1.3534314688,2.9266501173,4.5443046768,1.8103479904,1.9848231929,-8.5014744772,6.6586442620,-0.8665917128,-1.2032811186,-0.3592787144,-1.4163252685,,,
1.9335937500,123,-2.3388712653,-2.8583206781,-2.3550750417,0.3797554880,-0.8164306766,4.8546223855,1.3816816663,-3.2640861749,-4.9917112963,-2.5252381057,-1.6962266495,-1.7675627364,-5.6930850904,-1.8354095181,,,
1.9375000000,124,-2.6672084650,-0.6779151705,-1.2298508592,2.0917567949,-5.4977565514,2.0839869350,0.3581199499,-5.7347127954,2.2689537906,-8.3970906501,0.0438191870,-0.8172345796,-6.2402790792,-0.8188054657,,,
1.9414062500,124,-0.3265873365,3.2022108358,1.4644632242,2.4486296540,-6.8376632612,-1.5737052556,0.3513882430,-2.5239029665,7.8603286535,-6.4857471513,4.3405283864,1.7304127664,-1.2969784471,2.2627420972,,,
1.9453125000,124,3.0153732927,5.5169572383,3.8423497149,1.0970561939,-3.5086656793,-4.2694555507,1.5457619281,4.0463319519,7.7081088952,0.3840370607,7.1342148608,3.9019906586,5.3266780301,5.3251347326,,,
1.9492187500,124,3.9943556628,3.2295830315,3.2471372526,-1.0218961677,1.7801630021,-5.7246332611,1.9886042174,7.3366756528,1.1887891847,4.9363787080,4.0737342844,2.7550634263,7.1456738283,4.8717199650,,,
1.9531250000,125,0.4105179054,-2.9451670539,-1.2247875781,-3.0281061717,5.0955725520,-5.7661609242,0.5235813006,3.5303971349,-9.1195444229,2.8708278219,-4.3877600756,-2.1141414547,2.0332879249,-0.3265870989,,,
1.9570312500,125,-5.4817925924,-8.7398313296,-6.4680762557,-3.5203063886,5.0351519305,-3.6200293560,-2.4659190536,-4.4676501658,-17.3883855641,-3.7492223497,-12.5046008313,-7.3717159976,-5.9497721744,-7.2120093601,,,
1.9609375000,125,-8.2487750057,-8.9933743657,-7.3774299123,-1.7635729203,3.1586749942,1.0362880013,-4.5746206746,-9.9394135808,-17.3531873503,-8.2644496182,-12.9490207311,-7.8754374704,-9.4486128435,-9.8163799107,,,
1.9648437500,125,-4.3962316694,-2.4181591381,-1.9916324987,1.5749705664,1.0869897711,6.1989679701,-4.0681714740,-7.5559456969,-6.5900068236,-6.3311571602,-3.9471465866,-2.0326699771,-4.8471374844,-5.3211036223,,,
1.9687500000,126,4.1305439541,6.8544692128,6.3573597945,4.2186147760,-0.6097075274,8.7305670266,-0.6471087205,1.6035886696,10.5820873680,1.4309181368,8.9661580306,6.6848939633,4.8402566925,3.8267972436,,,
1.9726562500,126,11.0357975386,12.4350599494,11.1491164954,4.1586807285,-2.4914995097,6.6056226192,3.7047569566,10.8650887774,25.0127031218,9.3986721404,16.9452162446,11.8381360132,11.9166441396,11.2397423704,,,
1.9765625000,126,11.4745948287,10.2832217348,8.9710466113,1.4343854868,-4.0365653416,0.7696798080,6.1719954470,13.4364513340,27.8828087861,12.4589235165,14.4925805079,10.1306540972,11.1993677002,11.8711147827,,,
1.9804687500,126,4.8006804513,2.1592176430,1.2015549706,-1.6174192028,-3.6588038522,-5.3451822495,4.8455690955,7.9581127721,16.3134206524,8.7725590635,3.6193136835,2.7795353522,3.4756644658,5.1199859880,,,
1.9843750000,127,-4.7369498018,-6.8184245338,-6.8042993150,-3.1302986371,-0.8599006841,-7.6609949472,0.8389730088,-1.9407240131,-4.0866684227,1.0575325988,-8.0524657831,-5.4114075039,-5.9408849147,-4.2884874910,,,
1.9882812500,127,-11.1315292492,-11.2735867128,-10.0895521636,-2.6023822942,2.8691081507,-5.3502928445,-3.0786555972,-10.3473318155,-22.9731004718,-6.1269523499,-13.4327667587,-9.7494185338,-11.5830391993,-10.1912047388,,,
1.9921875000,127,-10.6246290453,-8.9565941157,-7.4389282159,-0.6496639239,4.7808594152,-0.6705534860,-4.3001679813,-13.2194999493,-29.8966784868,-9.0996079453,-10.3946899594,-8.9408206570,-10.5838224038,-9.5500248205,,,
1.9960937500,127,-4.0034971898,-2.1999847621,-1.0427312341,1.1186076627,3.6792589060,3.5463418896,-3.0154083615,-9.9604836587,-20.9847523498,-7.7451547353,-2.2803267613,-4.1973354993,-4.3415164316,-3.3371629123,,,
2.0000000000,128,3.6313075116,4.7734132261,4.7359484716,1.8935280439,0.4632082857,5.1063183959,-0.6836962262,-2.1413628345,-1.1350833797,-4.0992916930,4.9167818161,1.2596904282,3.4821838037,3.7370188785,,,
2.0039062500,128,7.4112573978,7.7258563062,6.5949217010,1.3612991006,-2.2281505608,4.2410361753,1.0251452848,6.9408259520,17.9930759681,-0.6642331480,7.0575565988,5.0892669414,8.5537996826,6.9580882584,,,
2.0078125000,128,5.7334686346,5.8178063959,4.0381259836,-0.1554167375,-2.8147019280,2.1412876503,1.1876598924,12.3702260005,25.2633958866,1.4590730718,3.9477067104,5.7450719865,8.2353102381,4.7398373211,,,
2.0117187500,128,1.0042496322,1.0146141888,-0.7369707506,-1.5316832444,-1.9816310389,0.0207712365,0.2104922035,10.6400406552,16.3604476031,2.8078581398,-1.1043690442,3.5422390060,2.9703148042,-0.7799481957,,,
2.0156250000,129,-2.8549417214,-3.1361361208,-4.4113837483,-2.1454599381,-1.4012957099,-1.7429118126,-0.4387784668,2.1359706383,-1.8243827646,3.5392212467,-4.1016224209,-0.5996944470,-3.8063354473,-5.1351053814,,,
2.0195312500,129,-4.1075882642,-4.6089353988,-5.1268301067,-1.5669182748,-2.0967867070,-3.4153139322,-0.0630170357,-7.6395132957,-16.5223341397,2.6120898313,-4.0372324520,-4.5216556914,-7.7089092736,-5.8471316505,,,
2.0234375000,129,-2.8488352577,-3.3927259942,-2.6091495917,-0.2614695856,-3.1075698333,-4.8753547290,0.7174730294,-12.1130339936,-18.2139001955,-0.1868129240,-1.5590677536,-5.5844550701,-6.2999059655,-2.8638973542,,,
2.0273437500,129,1.8500287988,1.5918732859,5.9800303293,3.7103776690,1.3972161743,-5.1921302460,1.6974900892,-3.7988381891,-2.8313106802,1.5899357446,6.1611896262,3.8766892175,4.5231216965,6.7479154230,,,
2.0312500000,130,0.8360797918,0.7309017363,2.1515061225,1.2390923159,-0.0510872279,-1.7038514458,0.4167574592,-2.9548434548,0.8066096160,-2.8015255282,1.6187436244,-1.1407471696,1.5838850524,2.2049512801,,,
2.0351562500,130,1.8260584267,1.8601732053,3.0652537951,1.3286392129,1.8460195280,-0.1645274623,-0.2499362611,3.3204375005,9.5142647492,-1.7746098192,2.1167038746,1.9804692420,4.3532845138,2.9889708628,,,
2.0390625000,130,2.8330768896,2.8757155437,3.9811915028,1.5249711140,6.0171676689,2.3904004389,-0.1054099537,9.4890434725,13.8074648347,3.5288974543,3.5776740614,6.8492482207,6.2010093297,5.0110931344,,,
2.0429687500,130,2.1288335189,2.2001879281,1.8439617131,0.4639745586,8.5269357880,5.6390319970,0.6329717818,10.3808867820,8.8508844004,7.3586599688,2.7349289854,7.0089897091,3.5672013095,4.7525409503,,,
2.0468750000,131,0.2840889225,-0.2681845248,-2.6001287912,-1.5228659908,5.6012794260,7.4286403040,1.0237013233,4.7311731424,-2.3880020050,4.9441391880,-0.9375612115,1.0102214144,-2.2626047672,0.5606139384,,,
2.0507812500,131,-1.6365798174,-2.8117481019,-6.2679707793,-2.7394868463,-2.0304465072,5.7734784219,0.1590754718,-3.8932983383,-12.5915916768,-2.7908252339,-4.9767276911,-6.9538023367,-6.6406069908,-5.2777180458,,,
2.0546875000,131,-2.3335599655,-3.5559432982,-6.2067917130,-2.5436348288,-10.1144352132,1.4932163991,-1.5639347524,-9.4313810424,-15.0724896537,-10.2105719596,-6.0519590917,-10.6175089728,-6.0048650498,-9.1478284541,,,
2.0585937500,131,-2.2344201235,-2.4919168143,-2.8026209739,-1.4836120257,-12.9831085063,-2.8821804735,-3.2050612149,-9.2463790069,-8.0554862369,-11.8413378290,-3.7419492326,-7.7275113552,-1.6822734734,-8.6720875257,,,
2.0625000000,132,-1.9612332095,-0.8546187202,1.0366455978,-0.1104851468,-8.4499036488,-5.7475942933,-3.3483527518,-4.8651334731,3.5204777047,-7.0248855662,-0.9045539475,-1.1188564192,1.7611251196,-4.7968519400,,,
2.0664062500,132,-1.6430087579,0.1887013317,2.8642064780,1.2988777396,1.0923274571,-6.5454133954,-1.8480185983,-0.1375731373,11.7997753408,1.0631949537,0.3388390827,4.4636394825,0.9955100796,0.8290527656,,,
2.0703125000,132,-0.6017398856,1.6474997322,3.0394076359,2.4930619489,9.8775036941,-5.7722393526,1.0464731389,3.0849840414,12.3850735075,8.4238848389,0.7410621502,6.4751643365,-2.2222568097,6.2743326930,,,
2.0742187500,132,1.3158415432,3.9780602914,2.9869016888,3.0299423770,13.3077083631,-3.4393569322,3.8218450986,5.8912675727,7.0391785192,12.0031976596,2.0815429530,5.4460720054,-2.8019159178,9.8201414194,,,
2.0781250000,133,3.5256057673,5.8098071520,3.6890456969,2.3028403050,9.6667688768,0.4822181076,5.0694101455,8.5057823880,0.4050006105,10.3472566866,4.8740552899,3.6162438224,1.4830999520,9.7886698534,,,
2.0820312500,133,4.5736226598,4.8291838502,3.6393540632,0.4765797403,1.1027231561,4.7025327640,3.5550375871,8.5767308208,-4.5272664232,4.3719930224,6.5699002470,1.7986462124,7.5485090622,5.1187937201,,,
2.0859375000,133,3.1721935331,-0.2474047763,1.1953871642,-1.8414787642,-7.8740909110,6.9256827342,0.0333479724,3.4447917745,-6.8792622994,-3.0440461678,4.3298930315,-0.5407700921,9.3628970349,-2.7322899236,,,
2.0898437500,133,-0.6528515281,-7.0082094631,-3.5110949745,-3.7560297419,-12.6604213967,5.9102173868,-3.1787804523,-5.8106759924,-6.7415729567,-8.3639428432,-1.6806166717,-3.8786460761,4.0054760402,-9.7973873010,,,
2.0937500000,134,-4.4612962427,-10.6188031139,-7.3034611271,-4.2583465464,-10.6501052261,2.3669398979,-4.0484380624,-13.6750944304,-4.4608048141,-9.3623945235,-7.3729106893,-6.2866329870,-5.0393736007,-11.8918994655,,,
2.0976562500,134,-5.0914197194,-7.5846011629,-6.5535901226,-2.0759543795,-2.9667308682,-1.6402746731,-2.5150639483,-13.8657518415,-0.5032984412,-6.5118348691,-8.4463342100,-5.1652596562,-10.7458219669,-7.3617343353,,,
2.1015625000,134,-1.5218399056,0.9434665215,-1.0269393999,1.7148314549,5.9815697124,-4.0175611078,-0.3130804812,-5.1443230672,3.1960941834,-1.9210977556,-3.4649147982,0.0090395303,-8.6965545382,1.6608500859,,,
2.1054687500,134,6.1773881239,13.4018404241,7.8445315234,5.0871616257,12.6890215193,-4.0075554990,1.0243347876,8.9047073458,7.5466069367,1.2904029087,6.7154011218,9.6381483518,2.1518615025,13.7557642822,,,
2.1093750000,135,0.7160770206,9.9423796028,3.3625474622,2.3790681150,8.4445776084,-0.7169500879,1.4817929077,15.1286285079,0.3071056462,2.7301686004,6.1943872099,3.0825426264,7.7247435275,10.3177202417,,,
2.1132812500,135,-4.7198494494,-0.6793167099,-3.1249310930,-0.9613381443,0.3057554312,0.6111869564,1.1137942468,8.6295563786,-4.3624973580,3.4180439557,-0.6179999796,-5.3293674131,3.3743334157,-0.1024569397,,,
2.1171875000,135,-5.9674862610,-9.0470055198,-6.1794164526,-2.1800686170,-5.0510921901,-0.1315257749,0.5112994469,-1.3711427617,-5.2049564158,3.9257025390,-6.7201025542,-8.8396363298,-4.3046907365,-9.0967708629,,,
2.1210937500,135,-1.8830329591,-8.8735828628,-2.6551378459,-1.1359560950,-5.4101986848,-1.2594673801,0.5133119993,-6.9808969330,-1.8935773378,5.0234412199,-5.9750856626,-4.4805452912,-7.2510690502,-10.1356772310,,,
2.1250000000,136,4.7430288669,-1.0306748985,4.6678260398,0.8158967684,-2.4573491591,-0.7793612193,0.8343374807,-6.0095373156,3.4345765045,5.4586337325,1.3883683529,4.6365483130,-2.2266439279,-3.2253579052,,,
2.1289062500,136,9.3923280254,7.4326521803,10.2193413740,1.9034333897,0.2829642821,1.3616362596,0.6769696531,-1.6932337264,7.8222145636,3.1301725713,9.4122677560,11.3257220763,6.6712942071,6.0003857955,,,
2.1328125000,136,8.3049191562,9.5350459034,9.0501844505,1.8308036589,0.8618024911,3.3830520897,-0.4573882293,1.7104292215,7.9248506006,-2.6369851531,10.8668242688,10.4852421014,11.4427647717,10.4392125008,,,
2.1367187500,136,1.6474323226,3.6448652606,0.8097068423,0.3765629577,-0.2220963167,2.8331701119,-1.8982677511,1.8667791657,3.1482594908,-8.8613414884,3.6029709341,2.4685611060,7.3482893655,6.7351439716,,,
2.1406250000,137,-6.0911724815,-5.2708382033,-8.9038009281,-1.7500909758,-1.0003456322,-0.6507123057,-2.5681412887,0.0409735382,-3.7695620333,-11.3028805457,-6.9611243455,-6.8770764986,-3.0134829349,-1.3973692395,,,
2.1445312500,137,-9.6465311677,-9.6713306069,-12.9824284745,-3.0834227531,-0.5427469778,-4.1882399916,-1.8521100137,-0.8349107487,-8.5797398102,-7.7310832634,-12.9114823571,-11.6569196720,-11.7624167691,-7.2674144549,,,
2.1484375000,137,-7.3351209264,-6.3830565575,-8.6713813205,-2.4208789142,1.1123181114,-5.0299645376,0.1095302226,0.6159948157,-8.5113522626,0.1494435494,-9.8539649084,-8.9879074202,-11.9190689085,-6.9382614756,,,
2.1523437500,137,-1.4366413643,1.5890108770,0.8159122560,-0.3762529755,2.5773360315,-2.4067628618,2.2869728763,2.7488639932,-4.1640782806,8.1127881170,-0.1716038670,-1.2064979141,-3.0501040254,-2.0021369364,,,
2.1562500000,138,3.8278719383,8.0405985234,8.7651770786,1.8764721314,3.1102097874,2.0468814982,3.3287270604,3.6129419518,1.5024135380,12.3211734777,9.4046669011,6.4355999366,8.3165011349,3.4316577833,,,
2.1601562500,138,5.9384079185,8.6364035130,10.9884884006,3.3139059134,2.5732046884,5.4037687633,2.3837509321,1.9855636680,5.6647699681,10.7091191628,13.1713590733,9.6922021906,13.9460257671,5.5025501603,,,
2.1640625000,138,5.0128871649,3.3176782964,7.0326386427,3.1871604279,0.4415932715,5.7112199540,0.0254130079,-0.9767648290,6.3368185013,3.4776716803,8.5631482719,7.1847327003,9.4241075052,3.1911514246,,,
2.1679687500,138,1.6881825160,-4.2830547968,-0.4942414901,0.9617988281,-3.2318904499,2.6001055152,-2.2993529637,-4.2260463755,3.7453134528,-6.4418374073,-1.7257973588,0.5771387265,-2.4578807780,-1.7019116967,,,
2.1718750000,139,-2.2764076063,-9.0880389555,-7.1552220487,-2.4558750732,-6.5146270689,-1.8608750244,-2.7384024245,-6.5055405311,-0.2552014638,-13.5204894822,-11.4964988536,-6.4644719213,-13.2827748596,-5.8296821282,,,
2.1757812500,139,-4.3848148726,-7.7323737652,-9.3886306220,-4.6849129091,-6.5561620022,-4.5139646348,-1.3992839298,-5.8899348313,-2.9629766889,-12.3745191295,-14.0855443678,-9.6804600506,-15.2926825023,-5.6020953893,,,
2.1796875000,139,-3.0963556300,-1.1103671034,-5.6532628184,-3.4896439958,-1.7169486803,-3.4781692474,0.5629174670,-1.5661673958,-3.1658539472,-2.5042074627,-7.2744861402,-6.2340057840,-6.2258293053,-0.3099887519,,,
2.1835937500,139,0.5977290750,6.0976680993,1.3123831681,0.4790456320,5.2394266899,-0.0231334548,1.7420001523,4.6210471866,-1.9915299401,10.3684939135,4.1225739797,1.8886467747,7.7065593424,6.1863340890,,,
2.1875000000,140,3.7142761043,8.4984387945,6.7718813343,4.1838911093,9.1639732084,2.5080340142,1.7506240674,8.8359411640,-1.0836336853,16.9263228037,12.3150985822,9.0283137224,16.4650071523,8.5009267672,,,
2.1914062500,140,3.6392642139,5.0871952417,6.7531915835,4.4544800160,6.7032941445,1.5359668328,0.7960553346,7.8686284166,-0.4724154106,11.3341855029,11.6654842958,9.5028355565,13.4489196836,4.4903963379,,,
2.1953125000,140,0.5183466036,-1.1765109140,2.2022510300,1.2561898648,-0.4208289011,-1.8879847753,-0.5071114271,1.8939916614,0.9564826020,-3.7099155938,3.1724155938,2.5645070454,0.9776820147,-3.3010629039,,,
2.1992187500,140,-3.2307524460,-5.8078515293,-2.9774736519,-2.4021437720,-6.5931364483,-4.4877968798,-1.5397880722,-5.2723486888,3.4799200976,-17.6412724552,-6.2403343834,-6.6824742659,-11.4192776924,-9.5203442808,,,
2.2031250000,141,-4.5725453534,-6.2759228233,-4.9898410943,-4.2107763153,-7.3069727735,-3.4912552174,-1.9761654379,-8.6275101597,5.5753982054,-20.1190306124,-10.0757019545,-10.9057583901,-15.6293404505,-9.6869267306,,,
2.2070312500,141,-2.4040880959,-2.8004899613,-3.1206406659,-2.9120946011,-2.3993201824,0.6851611073,-1.3562220766,-6.1330890269,4.8218509702,-9.4042245967,-6.4406743926,-6.7227763007,-9.3482265513,-3.4350486044,,,
2.2109375000,141,1.9531745850,1.8259998622,0.7143044289,0.6318691850,3.6128220039,5.1272475928,0.0728639634,0.1098276957,-0.0600066681,7.5706899771,1.3321544991,2.5423703431,2.8628637149,5.8938765641,,,
2.2148437500,141,5.1450300764,4.7077720284,3.8121726349,3.8568229797,5.6118430936,6.2526836932,1.6530949347,5.9876530328,-6.1885395576,19.9481298553,7.5909115763,10.1281008190,12.8465974215,12.3866411768,,,
2.2187500000,142,4.8274029718,4.7693885721,4.4267671824,4.4084057349,2.3793820470,3.2304201801,2.4291501557,8.1261462786,-8.8831078761,20.7630435665,8.6882670329,10.6441909834,14.9380833643,11.5289690609,,,
2.2226562500,142,0.8715232530,1.9350194726,2.0857908473,1.7492525173,-2.6211580289,-1.3833148988,1.9261165842,5.4138085641,-5.8827067669,10.3326258390,4.4121195147,4.0181937439,8.2513871883,3.3479772348,,,
2.2265625000,142,-3.9050857275,-2.1120882001,-2.2617144502,-2.2283150201,-4.9549146982,-4.0455893615,0.2059535168,-1.0532000254,-0.0359924844,-4.6477666568,-2.8922961957,-5.0463250870,-3.5635686823,-7.4035777243,,,
