Time:256Hz,Epoch,Channel 1,Channel 2,Channel 3,Channel 4,Channel 5,Channel 6,Channel 7,Channel 8,Channel 9,Channel 10,Channel 11,Channel 12,Channel 13,Channel 14,Event Id,Event Date,Event Duration
0.0000000000,0,-0.0000000000,-0.0000000000,-0.0000000000,-0.0000000000,-0.0000000000,-0.0000000000,-0.0000000000,-0.0000000000,-0.0000000000,-0.0000000000,-0.0000000000,-0.0000000000,-0.0000000000,-0.0000000000,,,
0.0039062500,0,0.0000236473,0.0000190494,0.0000190469,0.0000216736,-0.0000078824,0.0000170782,-0.0000013133,0.0000210182,0.0000177336,0.0000538587,0.0000249581,0.0000380963,0.0000137936,0.0000065691,,,
0.0078125000,0,0.0002072820,0.0001627639,0.0001620893,0.0002006570,-0.0000697511,0.0001627272,-0.0000114027,0.0002100735,0.0001881225,0.0004800985,0.0002114410,0.0003412735,0.0001118782,0.0000438994,,,
0.0117187500,0,0.0009021803,0.0006942913,0.0006885254,0.0009339079,-0.0003114649,0.0007745891,-0.0000476952,0.0010514523,0.0009803122,0.0021247937,0.0008811633,0.0015312914,0.0004394110,0.0001205849,,,
0.0156250000,1,0.0026589668,0.0020390033,0.0020113816,0.0029788784,-0.0009653814,0.0024933361,-0.0001296528,0.0035614182,0.0033868075,0.0063475491,0.0024684725,0.0046996720,0.0011387546,0.0001281071,,,
0.0195312500,1,0.0061055001,0.0048136107,0.0047098671,0.0074711169,-0.0024035523,0.0061799316,-0.0002636230,0.0092871621,0.0088383879,0.0146588341,0.0053868584,0.0113488673,0.0022624061,-0.0002108080,,,
0.0234375000,1,0.0118847743,0.0100489238,0.0097142352,0.0159395104,-0.0052168865,0.0126824907,-0.0004470589,0.0200608506,0.0188291530,0.0283101892,0.0100995765,0.0234010829,0.0038588102,-0.0011832473,,,
0.0273437500,1,0.0207505299,0.0195753710,0.0186532487,0.0303556978,-0.0103027647,0.0225436065,-0.0007058725,0.0376361126,0.0345909934,0.0480768690,0.0174898817,0.0433635160,0.0062664658,-0.0027148131,,,
0.0312500000,2,0.0337542692,0.0362939989,0.0341572328,0.0531329775,-0.0188423002,0.0357470582,-0.0011370334,0.0633977884,0.0572150892,0.0741835399,0.0293161376,0.0745091150,0.0104475690,-0.0039616282,,,
0.0351562500,2,0.0523631607,0.0640218800,0.0598734131,0.0869512745,-0.0320702695,0.0515830792,-0.0019173887,0.0982337817,0.0882512407,0.1062031845,0.0483913672,0.1208441003,0.0181404056,-0.0030939049,,,
0.0390625000,2,0.0783468822,0.1068014479,0.1000609528,0.1343637478,-0.0508755764,0.0686896749,-0.0032830598,0.1424681066,0.1302999101,0.1428771162,0.0782384807,0.1867149654,0.0317064545,0.0025673011,,,
0.0429687500,2,0.1133598809,0.1678549881,0.1588012695,0.1972661242,-0.0754194295,0.0852806983,-0.0055258687,0.1956569329,0.1869044030,0.1819879062,0.1222624157,0.2760787107,0.0536919839,0.0160428105,,,
0.0468750000,3,0.1583426626,0.2485796597,0.2390466944,0.2763926696,-0.1049660315,0.0994788168,-0.0090254903,0.2562163556,0.2615285812,0.2204444337,0.1827792593,0.3916356389,0.0862585280,0.0399928913,,,
0.0507812500,3,0.2130268691,0.3479573087,0.3418342576,0.3709924341,-0.1379728058,0.1096117803,-0.0142751741,0.3211163375,0.3561572467,0.2545943351,0.2603205077,0.5340957056,0.1306957547,0.0761082880,,,
0.0546875000,3,0.2757296952,0.4624880718,0.4658536531,0.4787553336,-0.1723847635,0.1143955835,-0.0218623898,0.3858439333,0.4700590028,0.2806899357,0.3534054213,0.7017407830,0.1871372702,0.1247653871,,,
0.0585937500,3,0.3434631581,0.5865622933,0.6073958087,0.5959776557,-0.2060513012,0.1130142362,-0.0323884136,0.4447055945,0.5989463277,0.2954251936,0.4587493614,0.8903182894,0.2544895443,0.1849623771,,,
0.0625000000,4,0.4123714951,0.7131803805,0.7607123806,0.7178929312,-0.2370954295,0.1051088887,-0.0462910432,0.4915788657,0.7350190113,0.2963902275,0.5718172256,1.0932792766,0.3305774817,0.2545425974,,,
0.0664062500,4,0.4783947867,0.8348426488,0.9187033853,0.8390281335,-0.2640390922,0.0906933123,-0.0635727637,0.5210380504,0.8682475021,0.2822864030,0.6875238573,1.3022975477,0.4124642323,0.3306256724,,,
0.0703125000,4,0.5378604642,0.9443024274,1.0736266889,0.9534594950,-0.2856530649,0.0700260998,-0.0835458246,0.5293847695,0.9883932453,0.2528989904,0.8007841423,1.5078789040,0.4968032582,0.4100147838,,,
0.0742187500,4,0.5877343118,1.0349531756,1.2175231774,1.0549644027,-0.3006909438,0.0434431262,-0.1047502886,0.5150804346,1.0867795671,0.2089456320,0.9067275621,1.6998642675,0.5800703406,0.4893803754,,,
0.0781250000,5,0.6254826165,1.1008413277,1.3422795191,1.1371662046,-0.3077098814,0.0111532351,-0.1251180709,0.4784579949,1.1571095679,0.1518925413,1.0005982108,1.8677320724,0.6585897844,0.5652022916,,,
0.0820312500,5,0.6486992124,1.1364794095,1.4394986745,1.1937474413,-0.3050768705,-0.0269439028,-0.1423057006,0.4209947678,1.1952473788,0.0837311088,1.0774873508,2.0007194301,0.7283466402,0.6336023736,,,
0.0859375000,5,0.6547330685,1.1366900443,1.5004540281,1.2187126387,-0.2911286402,-0.0713192872,-0.1540328742,0.3445561219,1.1983509146,0.0066650092,1.1320689977,2.0878696245,0.7846651659,0.6902287276,,,
0.0898437500,5,0.6405071621,1.0966402939,1.5163148348,1.2066276590,-0.2644150597,-0.1226995565,-0.1583239382,0.2508670770,1.1638344917,-0.0772671407,1.1584776840,2.1181524763,0.8219329342,0.7302805865,,,
0.0937500000,6,0.6025952356,1.0120931223,1.4786388331,1.1527926084,-0.2240139563,-0.1818219722,-0.1536767625,0.1412444946,1.0884939985,-0.1664919514,1.1504175461,2.0807793259,0.8336018310,0.7486701652,,,
0.0976562500,6,0.5374901061,0.8797879938,1.3799833054,1.0533736246,-0.1699469864,-0.2491775157,-0.1392292257,0.0165111832,0.9680196094,-0.2599641341,1.1015213965,1.9657551912,0.8126219445,0.7402725527,,,
0.1015625000,6,0.4419364790,0.6978159538,1.2144771292,0.9055639648,-0.1036437485,-0.3248419331,-0.1149258177,-0.1229547679,0.7971334812,-0.3569638769,1.0058929619,1.7646103446,0.7522684202,0.7002307142,,,
0.1054687500,6,0.3132469806,0.4658899153,0.9782878120,0.7078301036,-0.0282302886,-0.4084044294,-0.0816154162,-0.2770052510,0.5705446916,-0.4567730380,0.8587094623,1.4711836328,0.6471250977,0.6243181982,,,
0.1093750000,7,0.1496028001,0.1854982581,0.6700032626,0.4602254430,0.0516641238,-0.4989120250,-0.0410182960,-0.4453061321,0.2846252171,-0.5584263263,0.6567733800,1.0823294440,0.4939265633,0.5093604984,,,
0.1132812500,7,-0.0496383788,-0.1400061988,0.2909561974,0.1646777812,0.1307300607,-0.5947337093,0.0044479185,-0.6267860290,-0.0607249886,-0.6606313503,0.3989527955,0.5984664209,0.2920566302,0.3536638510,,,
0.1171875000,7,-0.2836484415,-0.5053400315,-0.1545284881,-0.1748490810,0.2042188262,-0.6933365437,0.0519524948,-0.8191448453,-0.4607878524,-0.7618055547,0.0864790931,0.0239282461,0.0436596183,0.1573457036,,,
0.1210937500,7,-0.5499038300,-0.9032535947,-0.6590132304,-0.5523436078,0.2690656740,-0.7911005283,0.0985854379,-1.0186350569,-0.9058461472,-0.8601107453,-0.2769244109,-0.6328958094,-0.2465629351,-0.0775208038,,,
0.1250000000,8,-0.8440608071,-1.3245591075,-1.2119841956,-0.9598339913,0.3243474133,-0.8833718240,0.1416550383,-1.2201832408,-1.3820824710,-0.9534053006,-0.6850827821,-1.3596181873,-0.5717487134,-0.3469342785,,,
0.1289062500,8,-1.1599168743,-1.7582500358,-1.8000393363,-1.3875319179,0.3708986645,-0.9648614697,0.1788731575,-1.4177230203,-1.8730457565,-1.0391251960,-1.1295217841,-2.1400801824,-0.9233324828,-0.6450640071,,,
0.1328125000,8,-1.4894353027,-2.1917341358,-2.4072170272,-1.8240532050,0.4104251669,-1.0302607726,0.2084140269,-1.6045331762,-2.3610789969,-1.1141848293,-1.5996525056,-2.9547306258,-1.2914505901,-0.9643418618,,,
0.1367187500,8,-1.8228345539,-2.6111994413,-3.0154648051,-2.2567641260,0.4447033455,-1.0747614344,0.2289008136,-1.7734624512,-2.8283585919,-1.1750099184,-2.0829712710,-3.7811609853,-1.6652389376,-1.2955649527,,,
0.1406250000,9,-2.1487584221,-3.0021012546,-3.6052206855,-2.6722628152,0.4752235345,-1.0942259752,0.2394006812,-1.9170703518,-3.2575462927,-1.2177534175,-2.5653692895,-4.5948062104,-2.0330614362,-1.6280960584,,,
0.1445312500,9,-2.4545509424,-3.3497048478,-4.1560373053,-3.0569396847,0.5031240281,-1.0850543357,0.2394784432,-2.0278004723,-3.6323072598,-1.2386253756,-3.0316682017,-5.3697887679,-2.3827589521,-1.9502282661,,,
0.1484375000,9,-2.7266889809,-3.6396184976,-4.6472262831,-3.3975259937,0.5290081681,-1.0440970534,0.2292759687,-2.0982996119,-3.9380121154,-1.2341770954,-3.4663223624,-6.0798348839,-2.7019766212,-2.2496821061,,,
0.1523437500,9,-2.9514046604,-3.8583280514,-5.0585990941,-3.6815703649,0.5525493184,-0.9688855052,0.2095282743,-2.1219292769,-4.1627456280,-1.2014484531,-3.8540731783,-6.6991981154,-2.9785521033,-2.5141364585,,,
0.1562500000,10,-3.1154346622,-3.9937983513,-5.3713729017,-3.8978475194,0.5722572256,-0.8580330761,0.1814792971,-2.0934243656,-4.2983788413,-1.1380647945,-4.1804469469,-7.2035953944,-3.2009181339,-2.7317385561,,,
0.1601562500,10,-3.2067877348,-4.0361622224,-5.5691891768,-4.0367293590,0.5857962059,-0.7114637529,0.1467572144,-2.0095617016,-4.3412001693,-1.0424120599,-4.4321526574,-7.5711818377,-3.3584943445,-2.8916096286,,,
0.1640625000,10,-3.2154470907,-3.9784101740,-5.6390616808,-4.0905257296,0.5908237172,-0.5303199648,0.1073012521,-1.8696171991,-4.2916547005,-0.9138719723,-4.5974422491,-7.7835054077,-3.4420528806,-2.9843591488,,,
0.1679687500,10,-3.1339372202,-3.8169113259,-5.5720140220,-4.0537756192,0.5859105677,-0.3166792958,0.0653728738,-1.6753832861,-4.1531314054,-0.7529417351,-4.6664295869,-7.8262734109,-3.4440314367,-3.0025572377,,,
0.1718750000,11,-2.9576949651,-3.5516075093,-5.3632620574,-3.9234673105,0.5710503414,-0.0733315302,0.0235870027,-1.4306734484,-3.9302769311,-0.5610500846,-4.6313348891,-7.6897574290,-3.3587700060,-2.9410664224,,,
0.1757812500,11,-2.6852371597,-3.1858323653,-5.0120140634,-3.6991824346,0.5475719060,0.1962395740,-0.0151473338,-1.1405034301,-3.6276320938,-0.3400614403,-4.4866499045,-7.3688171983,-3.1826688436,-2.7971547960,,,
0.1796875000,11,-2.3181893466,-2.7258531042,-4.5211387378,-3.3831629533,0.5176462832,0.4877669998,-0.0478407628,-0.8103200226,-3.2491808167,-0.0917320856,-4.2292774006,-6.8627341216,-2.9142873320,-2.5703945150,,,
0.1835937500,11,-1.8612668746,-2.1803299899,-3.8969479186,-2.9802793276,0.4837233673,0.7962435925,-0.0717532296,-0.4456022513,-2.7987544470,0.1824708369,-3.8587319148,-6.1751275830,-2.5544159713,-2.2624430711,,,
0.1875000000,12,-1.3222541958,-1.5598805630,-3.1491745678,-2.4978723435,0.4481062597,1.1162300818,-0.0847177803,-0.0519226441,-2.2806451129,0.4809280295,-3.3774551304,-5.3141053971,-2.1061561170,-1.8768577250,,,
0.1914062500,12,-0.7119481789,-0.8768247068,-2.2910409748,-1.9454859353,0.4126665907,1.4422942305,-0.0853389693,0.3646917025,-1.6997704001,0.8009592232,-2.7911905891,-4.2925698849,-1.5750275085,-1.4190665445,,,
0.1953125000,12,-0.0439693118,-0.1450470830,-1.3392347514,-1.3345665866,0.3786112682,1.7692772068,-0.0730424475,0.7973591473,-1.0613403301,1.1379885860,-2.1092262898,-3.1284249674,-0.9690724262,-0.8965068852,,,
0.1992187500,12,0.6656597649,0.6201554963,-0.3136562061,-0.6781998610,0.3462690570,2.0921797737,-0.0480554119,1.2381008687,-0.3706520574,1.4853418882,-1.3442644007,-1.8444069704,-0.2988507067,-0.3187978731,,,
0.2031250000,13,1.3991961049,1.4023317455,0.7630956786,0.0091299830,0.3149826871,2.4057446785,-0.0113995460,1.6778224831,0.3663109220,1.8348172321,-0.5118113196,-0.4674019866,0.4227987345,0.3022553750,,,
0.2070312500,13,2.1380172591,2.1842257872,1.8664338103,0.7118483585,0.2832327871,2.7040386077,0.0351124468,2.1065011637,1.1415020273,2.1776330023,0.3707551172,0.9726513434,1.1812440783,0.9529485847,,,
0.2109375000,13,2.8634115634,2.9481370749,2.9705624810,1.4137317841,0.2490206640,2.9803224537,0.0889498969,2.5135371138,1.9435153231,2.5051148121,1.2850814938,2.4439764975,1.9606200349,1.6182009441,,,
0.2148437500,13,3.5571180554,3.6762196615,4.0491920993,2.0984428269,0.2103692205,3.2272696882,0.1470418067,2.8882093505,2.7573769390,2.8087233887,2.2123677664,3.9139687455,2.7441911210,2.2821118486,,,
0.2187500000,14,4.2015626214,4.3507135358,5.0761221029,2.7500452703,0.1657138265,3.4373589587,0.2060006712,3.2201403888,3.5656975287,3.0795476820,3.1334577299,5.3498533714,3.5143781136,2.9283402270,,,
0.2226562500,14,4.7799205212,4.9541700118,6.0257330714,3.3534070757,0.1140349255,3.6032070954,0.2622931479,3.4996812391,4.3504563641,3.3077914380,4.0287119111,6.7190997446,4.2525864795,3.5402432819,,,
0.2265625000,14,5.2762264805,5.4697817906,6.8735078431,3.8944915891,0.0547645061,3.7177075567,0.3123233561,3.7182075063,5.0942842690,3.4827958905,4.8780018254,7.9898500239,4.9391786032,4.1009343673,,,
0.2304687500,14,5.6757088634,5.8819248431,7.5966967698,4.3606316507,-0.0123704125,3.7739821826,0.3525043022,3.8684140426,5.7806325568,3.5937799508,5.6610491207,9.1315783959,5.5538888850,4.5935511783,,,
0.2343750000,15,5.9653890277,6.1769327254,8.1751467835,4.7408984526,-0.0874111668,3.7652741136,0.3794305721,3.9447156179,6.3931645500,3.6310045815,6.3580864029,10.1160079246,6.0767155752,5.0019290836,,,
0.2382812500,15,6.1348289861,6.3439816984,8.5921766983,5.0265792370,-0.1700986960,3.6849738178,0.3901851237,3.9437589820,6.9152836241,3.5868214198,6.9506131745,10.9181161531,6.4890247838,5.3115873830,,,
0.2421875000,15,6.1768119362,6.3758580828,8.8352975337,5.2116259917,-0.2597571143,3.5269298239,0.3826917097,3.8649041364,7.3305375125,3.4562170407,7.4219985881,11.5169928737,6.7744940472,5.5106872529,,,
0.2460937500,15,6.0877738217,6.2693926329,8.8966267538,5.2928809410,-0.3552466612,3.2860512284,0.3559783026,3.7104791998,7.6239736010,3.2368745960,7.7578625295,11.8964218458,6.9196922474,5.5906350477,,,
0.2500000000,16,5.8679501211,6.0254943314,8.7730121882,5.2700102402,-0.4550259357,2.9590621284,0.3102774006,3.4857082308,7.7839086592,2.9291048816,7.9464085088,12.0452520974,6.9144018831,5.5462719357,,,
0.2539062500,16,5.5213338684,5.6489041732,8.4660253296,5.1452720334,-0.5572559652,2.5452271455,0.2469851045,3.1983635157,7.8033830189,2.5359902330,7.9789527104,11.9577217054,6.7519620227,5.3758598090,,,
0.2578125000,16,5.0555436136,5.1478680813,7.9819565106,4.9233081845,-0.6598521943,2.0469270139,0.1685465711,2.8582541537,7.6807847253,2.0637708550,7.8506762157,11.6337931455,6.4297702554,5.0810973437,,,
0.2617187500,16,4.4815938343,4.5338375683,7.3317625317,4.6110277669,-0.7604711669,1.4700261614,0.0783078697,2.4765919924,7.4195060069,1.5221648576,7.5612918997,11.0793499882,5.9497625658,4.6671767548,,,
0.2656250000,17,3.8134743465,3.8211451330,6.5307671183,4.2174910038,-0.8565190545,0.8239771238,-0.0196832424,2.0651952389,7.0268089876,0.9242307869,7.1152026084,10.3060125894,5.3185352657,4.1426730743,,,
0.2695312500,17,3.0674783060,3.0265235032,5.5979701354,3.7536647961,-0.9452886151,0.1215790028,-0.1209716971,1.6355362733,6.5122685444,0.2856089088,6.5209991071,9.3304872236,4.5469787572,3.5190889080,,,
0.2734375000,17,2.2613401726,2.1684081060,4.5550591825,3.2320065735,-1.0242561428,-0.6216819096,-0.2210898462,1.1978063148,5.8862685923,-0.3766731189,5.7906024628,8.1736547618,3.6496775773,2.8101271441,,,
0.2773437500,17,1.4133521571,1.2661183905,3.4254244818,2.6659385984,-1.0914605156,-1.3886812071,-0.3159709585,0.7602955360,5.1590610972,-1.0454223031,4.9385988023,6.8597728866,2.6445073506,2.0309815873,,,
0.2812500000,18,0.5416615807,0.3391426629,2.2334775193,2.0693389537,-1.1458029011,-2.1618914906,-0.4022407440,0.3293187443,4.3407623243,-1.7041453066,3.9821259973,5.4160584387,1.5526366393,1.1979301117,,,
0.2851562500,18,-0.3361031966,-0.5932454928,1.0043807755,1.4561822144,-1.1870971802,-2.9244522781,-0.4772863219,-0.0903324686,3.4422629198,-2.3373814520,2.9412085388,3.8726153525,0.3987200542,0.3283043477,,,
0.2890625000,18,-1.2028775063,-1.5119739320,-0.2359569162,0.8403835772,-1.2158108152,-3.6607475773,-0.5391305288,-0.4946988143,2.4764741196,-2.9305875228,1.8390678819,2.2624061000,-0.7891715396,-0.5593439767,,,
0.2929687500,18,-2.0420612730,-2.3979536447,-1.4609366267,0.2357525139,-1.2326303368,-4.3564160804,-0.5862625930,-0.8801249327,1.4589921906,-3.4698581796,0.7019204212,0.6209066743,-1.9802059573,-1.4451952448,,,
0.2968750000,19,-2.8375661933,-3.2320170422,-2.6436847981,-0.3441389477,-1.2381190457,-4.9980540248,-0.6175901092,-1.2431673638,0.4075182753,-3.9418403642,-0.4419160133,-1.0147562046,-3.1420019619,-2.3084906235,,,
0.3007812500,19,-3.5742174145,-3.9953002175,-3.7579348954,-0.8863164337,-1.2326647594,-5.5730249261,-0.6325569188,-1.5809002758,-0.6597932782,-4.3340991973,-1.5634054430,-2.6071297465,-4.2421106213,-3.1282766439,,,
0.3046875000,19,-4.2384761788,-4.6700723943,-4.7792012487,-1.3789644915,-1.2166617125,-6.0696210450,-0.6313032143,-1.8912849213,-1.7260305498,-4.6359341993,-2.6342689018,-4.1199615535,-5.2494720043,-3.8843591888,,,
0.3085937500,19,-4.8192152783,-5.2407388336,-5.6858955490,-1.8120212232,-1.1906378484,-6.4774577250,-0.6146714185,-2.1732205493,-2.7760918502,-4.8393606235,-3.6282290562,-5.5196233611,-6.1357268950,-4.5581651536,,,
0.3125000000,20,-5.3082221372,-5.6946774694,-6.4600945241,-2.1776374825,-1.1550562360,-6.7877477968,-0.5839671703,-2.4261497799,-3.7957364957,-4.9398409169,-4.5219334393,-6.7762395653,-6.8764137120,-5.1333432893,,,
0.3164062500,20,-5.7002554714,-6.0227243429,-7.0879006045,-2.4704384630,-1.1098037061,-6.9932271293,-0.5405910000,-2.6494475712,-4.7698518644,-4.9364635661,-5.2956480127,-7.8644976609,-7.4520701019,-5.5961711599,,,
0.3203125000,20,-5.9927280355,-6.2193417282,-7.5595447636,-2.6876306074,-1.0536866702,-7.0878656682,-0.4857727425,-2.8419835347,-5.6812383918,-4.8315503408,-5.9338281481,-8.7642292849,-7.8491224907,-5.9359514140,,,
0.3242187500,20,-6.1852714282,-6.2826280863,-7.8694192817,-2.8290272259,-0.9843131927,-7.0667342427,-0.4205603637,-3.0020985134,-6.5108209748,-4.6299627693,-6.4255684283,-9.4608480583,-8.0603492135,-6.1454897235,,,
0.3281250000,21,-6.2794128628,-6.2142773238,-8.0160976973,-2.8970049923,-0.8984716388,-6.9262480370,-0.3460153293,-3.1279285891,-7.2391454018,-4.3384801077,-6.7648414983,-9.9456285794,-8.0848078580,-6.2215454972,,,
0.3320312500,21,-6.2784011127,-6.0194578928,-8.0022532604,-2.8963332328,-0.7927801833,-6.6646632577,-0.2634390160,-3.2178211539,-7.8482213916,-3.9654648879,-6.9504572857,-10.2157318632,-7.9273488760,-6.1650448585,,,
0.3359375000,21,-6.1871251124,-5.7065770457,-7.8344152152,-2.8338679410,-0.6643675905,-6.2825939941,-0.1745140034,-3.2706557872,-8.3229755610,-3.5208279143,-6.9857781515,-10.2739640013,-7.5979018134,-5.9809713268,,,
0.3398437500,21,-6.0120645261,-5.2869262140,-7.5225637694,-2.7181565489,-0.5114912583,-5.7834111334,-0.0813423173,-3.2860075189,-8.6520723767,-3.0161868483,-6.8782776361,-10.1283299498,-7.1106410826,-5.6779744401,,,
0.3437500000,22,-5.7611199635,-4.7741014889,-7.0794951739,-2.5589280845,-0.3339680524,-5.1734320215,0.0136371325,-3.2641080739,-8.8279122976,-2.4649645262,-6.6389829978,-9.7913560335,-6.4831230707,-5.2676905630,,,
0.3476562500,22,-5.4431995989,-4.1831530728,-6.5199607248,-2.3664531119,-0.1333094429,-4.4618904346,0.1078365876,-3.2056459307,-8.8459669720,-1.8821382927,-6.2818114492,-9.2791768931,-5.7354648245,-4.7638360492,,,
0.3515625000,22,-5.0676535913,-3.5296713874,-5.8597985492,-2.1508846783,0.0873828357,-3.6607843790,0.1987172487,-3.1115831163,-8.7041764051,-1.2835920989,-5.8228408450,-8.6105541300,-4.8895715641,-4.1813084481,,,
0.3554687500,22,-4.6437152568,-2.8290093327,-5.1152326475,-1.9216936087,0.3236432561,-2.7847091476,0.2839248303,-2.9831052207,-8.4028981962,-0.6851990432,-5.2795614447,-7.8059723901,-3.9683799828,-3.5354478081,,,
0.3593750000,23,-4.1800554326,-2.0957117593,-4.3023697660,-1.6872379910,0.5699327244,-1.8507086491,0.3613500227,-2.8217243346,-7.9454179538,-0.1017789719,-4.6701522507,-6.8868587789,-2.9951156725,-2.8414653378,,,
0.3632812500,23,-3.6845761322,-1.3433004066,-3.4369705939,-1.4545118704,0.8199991342,-0.8780299861,0.4291044982,-2.6295938774,-7.3389683032,0.4538146756,-4.0128578636,-5.8750336819,-1.9926790224,-2.1141165353,,,
0.3671875000,23,-3.1644696918,-0.5844581577,-2.5345001575,-1.2290871326,1.0673140205,0.1123904298,0.4854455678,-2.4099699022,-6.5958907253,0.9712170035,-3.3255129058,-4.7924503292,-0.9832590657,-1.3676445923,,,
0.3710937500,23,-2.6263658471,0.1686531427,-1.6102528217,-1.0151706169,1.3055254094,1.0987326480,0.5287372113,-2.1675322331,-5.7342003836,1.4426559872,-2.6251685033,-3.6610761533,0.0119008138,-0.6158150056,,,
0.3750000000,24,-2.0763959442,0.9041743782,-0.6793682076,-0.8157051937,1.5288875009,2.0593098621,0.5574967265,-1.9083717142,-4.7771851690,1.8627902100,-1.9277573790,-2.5027706312,0.9727032858,0.1281493268,,,
0.3789062500,24,-1.5201246694,1.6104696464,0.2432985605,-0.6324964672,1.7326468436,2.9736970893,0.5705074609,-1.6396485853,-3.7521800360,2.2284010159,-1.2477812334,-1.3391366366,1.8804010487,0.8518039234,,,
0.3828125000,24,-0.9623562129,2.2762480192,1.1434171907,-0.4663362164,1.9132170293,3.8237491945,0.5669445172,-1.3689686733,-2.6887517969,2.5379293042,-0.5980428630,-0.1913323496,2.7178170010,1.5438462621,,,
0.3867187500,24,-0.4069442911,2.8908994401,2.0074070771,-0.3171140016,2.0679534933,4.5942267891,0.5464485914,-1.1036546125,-1.6167086332,2.7907728373,0.0104986153,0.9201362885,3.4695475395,2.1944147757,,,
0.3906250000,25,0.1431591159,3.4448675515,2.8224776677,-0.1839734043,2.1946024040,5.2729229244,0.5091090221,-0.8502511443,-0.5645368756,2.9863599857,0.5686440689,1.9755595455,4.1220533980,2.7950820243,,,
0.3945312500,25,0.6855205205,3.9298701345,3.5764661752,-0.0655568046,2.2907256892,5.8504078504,0.4553759814,-0.6144839203,0.4413903446,3.1232591782,1.0686396578,2.9560906168,4.6636089691,3.3384761299,,,
0.3984375000,25,1.2176864347,4.3389454152,4.2576678046,0.0397094186,2.3533883828,6.3196167544,0.3859652769,-0.4015692131,1.3769669549,3.1987601329,1.5038106021,3.8438565240,5.0842421450,3.8177211227,,,
0.4023437500,25,1.7368027181,4.6664552467,4.8549172899,0.1334004945,2.3792119462,6.6754899291,0.3018258422,-0.2165107018,2.2203194059,3.2092580226,1.8684180054,4.6222798628,5.3758895074,4.2260295125,,,
0.4062500000,26,2.2395787780,4.9081977503,5.3580425631,0.2170297184,2.3647184201,6.9147958634,0.2042120306,-0.0639846165,2.9520514637,3.1513894712,2.1579168258,5.2766901870,5.5329078511,4.5567240584,,,
0.4101562500,26,2.7225155681,5.0616604311,5.7585760722,0.2921169096,2.3068204698,7.0361835156,0.0948450407,0.0523421316,3.5559771400,3.0234563041,2.3695511513,5.7951399422,5.5528496711,4.8037343500,,,
0.4140625000,26,3.1820897693,5.1262765050,6.0504332513,0.3602520345,2.2033414497,7.0404562082,-0.0239213562,0.1307941140,4.0201890940,2.8264940860,2.5029661376,6.1691717538,5.4371441827,4.9623135954,,,
0.4179687500,26,3.6145839760,5.1034762139,6.2302725476,0.4229686786,2.0534863167,6.9309759157,-0.1490439240,0.1723946437,4.3380734555,2.5645703253,2.5604339521,6.3942117228,5.1912538455,5.0295435736,,,
0.4218750000,27,4.0156241146,4.9964490372,6.2974697776,0.4813993329,1.8581683027,6.7139329233,-0.2768877164,0.1808995889,4.5088963125,2.2444960759,2.5465731088,6.4694663705,4.8242475023,5.0043856695,,,
0.4257812500,27,4.3798693153,4.8097522642,6.2539049606,0.5359316242,1.6201182790,6.3982122479,-0.4034124065,0.1623593685,4.5378435654,1.8755104174,2.4678721641,6.3975748172,4.3482291054,4.8874914238,,,
0.4296875000,27,4.7011792760,4.5489899127,6.1038044979,0.5861162697,1.3438058120,5.9948897005,-0.5243504315,0.1247550294,4.4356444374,1.4691822926,2.3324110401,6.1843844951,3.7780578209,4.6811786276,,,
0.4335937500,27,4.9731892341,4.2206901215,5.8536862966,0.6308816200,1.0352512237,5.5165993559,-0.6353440156,0.0779420280,4.2178916233,1.0392905724,2.1498685208,5.8389759338,3.1313686337,4.3896981293,,,
0.4375000000,28,5.1900039808,3.8323400928,5.5122506222,0.6689022571,0.7017722700,4.9769423323,-0.7320708684,0.0336070699,3.9040663878,0.6013786977,1.9315827734,5.3737515203,2.4285619201,4.0195297815,,,
0.4414062500,28,5.3467288630,3.3923949745,5.0900095978,0.6988938511,0.3516716664,4.3899864103,-0.8104016636,0.0047647740,3.5163269435,0.1719279245,1.6903386099,4.8042677610,1.6923915064,3.5793295136,,,
0.4453125000,28,5.4396957937,2.9100480679,4.5985604286,0.7196891442,-0.0061422947,3.7698632896,-0.8666091491,0.0045826395,3.0782171879,-0.2326641196,1.4397165681,4.1486018589,0.9470073457,3.0793597780,,,
0.4492187500,28,5.4664098287,2.3946873179,4.0496064463,0.7301088868,-0.3625957591,3.1304795822,-0.8976085260,0.0447731191,2.6134528236,-0.5970501727,1.1931215479,3.4263150629,0.2166307548,2.5305891612,,,
0.4531250000,29,5.4253547478,1.8552064310,3.4540046868,0.7287738202,-0.7088859735,2.4853594939,-0.9011803419,0.1341022168,2.1448755649,-0.9076866324,0.9628128328,2.6573225140,-0.4757626639,1.9438853771,,,
0.4570312500,29,5.3158454780,1.2995182862,2.8211633153,0.7140510919,-1.0367800391,1.8475860062,-0.8761316469,0.2775334140,1.6936228917,-1.1533288741,0.7592520010,1.8610421994,-1.1094205981,1.3296818335,,,
0.4609375000,29,5.1380635091,0.7345184567,2.1589462297,0.6842343623,-1.3386933218,1.2297259875,-0.8223760560,0.4761487414,1.2785222509,-1.3253142375,0.5908566155,1.0559968220,-1.6663699886,0.6981570515,,,
0.4648437500,29,4.8932384867,0.1663812813,1.4739400472,0.6378539191,-1.6076737029,0.6436024008,-0.7409360123,0.7275274129,0.9156383053,-1.4177394186,0.4639675256,0.2597118326,-2.1317266999,0.0595719459,,,
0.4687500000,30,4.5838541377,-0.3990713436,0.7718453555,0.5739627308,-1.8374430028,0.0999023250,-0.6338812233,1.0262242981,0.6179031925,-1.4275995540,0.3828290663,-0.5113301100,-2.4939401572,-0.5755525030,,,
0.4726562500,30,4.2138736588,-0.9559340235,0.0579448437,0.4924088869,-2.0224062244,-0.3922387078,-0.5042145201,1.3643402788,0.3948642731,-1.3548552408,0.3495969702,-1.2417117912,-2.7449829423,-1.1963525120,,,
0.4765625000,30,3.7889855640,-1.4977009555,-0.6623802498,0.3941092927,-2.1575633671,-0.8255724833,-0.3557067840,1.7322076742,0.2525525417,-1.2024025046,0.3643940633,-1.9170914942,-2.8804709403,-1.7915707861,,,
0.4804687500,30,3.3166859002,-2.0169780521,-1.3833102797,0.2811570956,-2.2385620598,-1.1950059247,-0.1926836070,2.1189522428,0.1933558735,-0.9759839494,0.4252993658,-2.5243819932,-2.8997561748,-2.3497610695,,,
0.4843750000,31,2.8060303496,-2.5056887742,-2.0985665945,0.1566433956,-2.2620823544,-1.4978086957,-0.0197913878,2.5127911886,0.2158776566,-0.6840414727,0.5282678162,-3.0521734907,-2.8059516619,-2.8598325687,,,
0.4882812500,31,2.2671335490,-2.9556283231,-2.8015620367,0.0243081301,-2.2264003332,-1.7337289127,0.1582110099,2.9012359638,0.3149527553,-0.3374616338,0.6671543596,-3.4912057263,-2.6057809180,-3.3116783940,,,
0.4921875000,31,1.7105580473,-3.3591231764,-3.4855679021,-0.1118315392,-2.1319262230,-1.9050029832,0.3366196115,3.2713835379,0.4819699444,0.0507922325,0.8339504850,-3.8347234070,-2.3092259508,-3.6966770169,,,
0.4960937500,31,1.1466525536,-3.7096812533,-4.1438860525,-0.2478202612,-1.9816287216,-2.0162682832,0.5109253418,3.6103338265,0.7055129272,0.4660924880,1.0191844706,-4.0787240156,-1.9290724743,-4.0080649412,,,
0.5000000000,32,0.5849445086,-4.0024574989,-4.7700107637,-0.3799974743,-1.7811574431,-2.0743682506,0.6769046602,3.9057043666,0.9721815982,0.8924844371,1.2123162702,-4.2221309820,-1.4805847317,-4.2412223578,,,
0.5039062500,32,0.0337411978,-4.2343826413,-5.3577831203,-0.5050719573,-1.5385106626,-2.0880108274,0.8306100014,4.1461371754,1.2672375691,1.3129007802,1.4019204407,-4.2669050790,-0.9814816250,-4.3939086229,,,
0.5078125000,32,-0.4999638693,-4.4040314546,-5.9015157295,-0.6201191997,-1.2634538245,-2.0672922216,0.9682741493,4.3216753342,1.5747946465,1.7094735939,1.5757394478,-4.2180101605,-0.4518795616,-4.4663763184,,,
0.5117187500,32,-1.0102337030,-4.5113669329,-6.3958713176,-0.7226012116,-0.9669925715,-2.0232120717,1.0862343426,4.4240609745,1.8778254763,2.0643115286,1.7210653876,-4.0829987699,0.0865061500,-4.4611096008,,,
0.5156250000,33,-1.4916372360,-4.5573962733,-6.8352949023,-0.8103936418,-0.6608511082,-1.9673096980,1.1809887148,4.4471351883,2.1586422811,2.3607928556,1.8257175425,-3.8711259075,0.6120820371,-4.3820698981,,,
0.5195312500,33,-1.9387723485,-4.5438544490,-7.2133063922,-0.8818040218,-0.3567603846,-1.9113057791,1.2494407328,4.3873562044,2.4001952721,2.5847512939,1.8791141182,-3.5923852489,1.1050357242,-4.2338480591,,,
0.5234375000,33,-2.3463201697,-4.4731084107,-7.5223214810,-0.9356449194,-0.0656962112,-1.8664534775,1.2892799056,4.2442017269,2.5877485888,2.7247376576,1.8726417035,-3.2570408989,1.5476788991,-4.0213178796,,,
0.5273437500,33,-2.7094758413,-4.3481731546,-7.7540834868,-0.9713170041,0.2025970922,-1.8426521223,1.2992842659,4.0201924203,2.7099990435,2.7715749499,1.7994915089,-2.8755974084,1.9238406528,-3.7497484398,,,
0.5312500000,34,-3.0241731244,-4.1725663337,-7.9001188419,-0.9887556906,0.4397430043,-1.8477630627,1.2793505071,3.7204618517,2.7591713943,2.7182693580,1.6548651422,-2.4586569042,2.2188716598,-3.4248146130,,,
0.5351562500,34,-3.2870189402,-3.9500911271,-7.9519570932,-0.9882752377,0.6387337626,-1.8873464974,1.2303185942,3.3520239607,2.7305435372,2.5606075770,1.4366838441,-2.0165549445,2.4206787494,-3.0523557219,,,
0.5390625000,34,-3.4953362513,-3.6848332248,-7.9013935184,-0.9704868909,0.7938961907,-1.9646920332,1.1537772240,2.9229840432,2.6220555360,2.2978985767,1.1461499031,-1.5591192626,2.5209423645,-2.6382113214,,,
0.5429687500,34,-3.6475341050,-3.3813742423,-7.7410123013,-0.9363540307,0.9007705675,-2.0810053263,1.0519243954,2.4419184909,2.4342192764,1.9334373767,0.7877413838,-1.0957126961,2.5158037002,-2.1883475339,,,
0.5468750000,35,-3.7436339588,-3.0449436735,-7.4648653107,-0.8872982984,0.9559287237,-2.2357067544,0.9274682900,1.9176068572,2.1702401625,1.4746843341,0.3687599994,-0.6353797243,2.4058869487,-1.7091406798,,,
0.5507812500,35,-3.7855849330,-2.6812468660,-7.0690153288,-0.8252309160,0.9569330654,-2.4268053940,0.7835512661,1.3591874186,1.8361811043,0.9333174325,-0.1011491595,-0.1868060745,2.1959347701,-1.2074983566,,,
0.5546875000,35,-3.7771106166,-2.2959633235,-6.5517338668,-0.7524373721,0.9026745698,-2.6512432559,0.6236928706,0.7765942605,1.4409758507,0.3251942130,-0.6101614036,0.2420361281,1.8944548298,-0.6906126775,,,
0.5585937500,35,-3.7231518092,-1.8941874932,-5.9134139890,-0.6713459474,0.7941307287,-2.9050513739,0.4517435939,0.1809365890,0.9961304150,-0.3299597368,-1.1441415016,0.6444083989,1.5135574323,-0.1654530214,,,
0.5625000000,36,-3.6292212755,-1.4801370623,-5.1564619767,-0.5842902664,0.6352660937,-3.1832164509,0.2718265334,-0.4155313108,0.5150811925,-1.0093542518,-1.6865649473,1.0152048200,1.0688465210,0.3616722773,,,
0.5664062500,36,-3.5009582633,-1.0572305533,-4.2853846124,-0.4933652427,0.4335985880,-3.4793077332,0.0882498974,-0.9999575963,0.0123816300,-1.6884235733,-2.2188449344,1.3510534277,0.5790886556,0.8852185988,,,
0.5703125000,36,-3.3439237473,-0.6283350698,-3.3070490028,-0.4003761703,0.2000549607,-3.7850513419,-0.0945942367,-1.5597150598,-0.4969796055,-2.3423001575,-2.7211380402,1.6501713451,0.0654963378,1.4001823958,,,
0.5742187500,36,-3.1634711525,-0.1958831587,-2.2308987802,-0.3067922819,-0.0519052954,-4.0900724460,-0.2723105629,-2.0830817424,-0.9979089594,-2.9470796996,-3.1734076891,1.9121518500,-0.4493267712,1.9018013567,,,
0.5781250000,37,-2.9645515946,0.2382453368,-1.0689510531,-0.2136433923,-0.3075718628,-4.3819590858,-0.4405531796,-2.5595290487,-1.4752381570,-3.4806929465,-3.5564511124,2.1377930241,-0.9426018977,2.3854226663,,,
0.5820312500,37,-2.7515025612,0.6728648480,0.1643811660,-0.1214196271,-0.5522609630,-4.6467046517,-0.5950920818,-2.9797284806,-1.9137700348,-3.9235396502,-3.8527554987,2.3289073287,-1.3925888396,2.8465686543,,,
0.5859375000,37,-2.5279955899,1.1073057541,1.4524375403,-0.0301079321,-0.7723510317,-4.8694956877,-0.7319568721,-3.3356230516,-2.2987050457,-4.2592085383,-4.0472583947,2.4879649337,-1.7797162685,3.2810207281,,,
0.5898437500,37,-2.2972395840,1.5407708069,2.7763066982,0.0605740886,-0.9560433590,-5.0357113278,-0.8476856348,-3.6208228170,-2.6165922340,-4.4754331248,-4.1281351995,2.6175262707,-2.0875817310,3.6847375332,,,
0.5937500000,38,-2.0623280490,1.9714573862,4.1147871116,0.1508363701,-1.0938655922,-5.1319012527,-0.9396284003,-3.8312708560,-2.8566016134,-4.5650448362,-4.0875825012,2.7196290225,-2.3037261551,4.0536112398,,,
0.5976562500,38,-1.8264795957,2.3959141662,5.4445842561,0.2405313366,-1.1788785738,-5.1464881804,-1.0061873948,-3.9658474000,-3.0116707045,-4.5264321941,-3.9223848935,2.7954143208,-2.4200510419,4.3832559573,,,
0.6015625000,38,-1.5929697588,2.8089940219,6.7409320287,0.3290391646,-1.2065528368,-5.0700584806,-1.0468821666,-4.0265364586,-3.0790830216,-4.3631648046,-3.6340515251,2.8451753179,-2.4328242830,4.6690354694,,,
0.6054687500,38,-1.3647457056,3.2043978603,7.9785729485,0.4153324344,-1.1744204977,-4.8953221787,-1.0622154780,-4.0179938376,-3.0602827814,-4.0829144359,-3.2285039747,2.8687522958,-2.3423840065,4.9063628197,,,
0.6093750000,39,-1.1439251359,3.5754621034,9.1328111435,0.4981562537,-1.0817671887,-4.6170219592,-1.0534240535,-3.9466840230,-2.9600740644,-3.6962223132,-2.7155101321,2.8659884797,-2.1527611050,5.0910791098,,,
0.6132812500,39,-0.9314730018,3.9157549083,10.1803281750,0.5762384570,-0.9296342732,-4.2320991101,-1.0222507389,-3.8199755045,-2.7855970254,-3.2156748015,-2.1081143112,2.8369603364,-1.8714031720,5.2196205932,,,
0.6171875000,39,-0.7272525192,4.2192275741,11.0996327006,0.6484607650,-0.7211933191,-3.7402014413,-0.9708330435,-3.6455560104,-2.5454941628,-2.6556551687,-1.4222004057,2.7818935998,-1.5090287404,5.2888105190,,,
0.6210937500,39,-0.5304118924,4.4799675692,11.8712588674,0.7139727106,-0.4622510450,-3.1442685469,-0.9016966256,-3.4312934026,-2.2494955336,-2.0323734512,-0.6761648062,2.7009104504,-1.0794914231,5.2953810492,,,
0.6250000000,40,-0.3398483436,4.6918427693,12.4779565264,0.7722890520,-0.1614325489,-2.4506834450,-0.8177537385,-3.1854382990,-1.9084710588,-1.3637015323,0.1093909373,2.5938334462,-0.5995123476,5.2355185297,,,
0.6289062500,40,-0.1544735211,4.8483855731,12.9050182319,0.8233919740,0.1702806784,-1.6686626015,-0.7222161340,-2.9169728011,-1.5349101055,-0.6686060800,0.9119958580,2.4601386606,-0.0882475188,5.1046825131,,,
0.6328125000,40,0.0267560559,4.9430736112,13.1406455178,0.8677549878,0.5204098228,-0.8093170213,-0.6184491472,-2.6358548746,-1.1435488241,0.0335268067,1.7077064174,2.2989711641,0.4332713989,4.8977499974,,,
0.6367187500,40,0.2048662062,4.9698472703,13.1761807994,0.9062041469,0.8755945915,0.1147429128,-0.5098778783,-2.3529281374,-0.7516402483,0.7232510086,2.4716330528,2.1091433895,0.9428278602,4.6093827806,,,
0.6406250000,41,0.3808392700,4.9235807637,13.0062337006,0.9396895115,1.2217131362,1.0890338751,-0.3999783957,-2.0794490823,-0.3785392411,1.3811260257,3.1786612740,1.8892074679,1.4178919206,4.2345163968,,,
0.6445312500,41,0.5555806687,4.8003933638,12.6289000052,0.9691256463,1.5438871791,2.0966527981,-0.2922619195,-1.8263208222,-0.0445673629,1.9878954285,3.8044060379,1.6377771724,1.8366947824,3.7689541629,,,
0.6484375000,41,0.7299525549,4.5978937754,12.0461894167,0.9953808006,1.8269206463,3.1182474113,-0.1901539485,-1.6031537873,0.2307132733,2.5250851016,4.3263852134,1.3541599197,2.1794464314,3.2100857631,,,
0.6523437500,41,0.9048949907,4.3154677717,11.2645602738,1.0193734831,2.0563986562,4.1327764969,-0.0967692394,-1.4173317969,0.4304981038,2.9759865332,4.7252773747,1.0391451723,2.4295281716,2.5576923568,,,
0.6562500000,42,1.0815682281,3.9545734756,10.2952800421,1.0421480520,2.2201576965,5.1187914687,-0.0146780051,-1.2733000922,0.5425154723,3.3267174708,4.9860146533,0.6956253755,2.5744163951,1.8146908782,,,
0.6601562500,42,1.2613588743,3.5188727837,9.1543033555,1.0647811089,2.3095120551,6.0556394002,0.0542269787,-1.1722382217,0.5600757504,3.5670020197,5.0984500243,0.3287127234,2.6061143791,0.9875859932,,,
0.6640625000,42,1.4456031681,3.0140636688,7.8615431653,1.0880600310,2.3197452964,6.9240829310,0.1087166282,-1.1121603585,0.4821279861,3.6904949873,5.0574781986,-0.0547785494,2.5210295926,0.0864480304,,,
0.6679687500,42,1.6350620221,2.4474933120,6.4397469668,1.1120498205,2.2498425980,7.7062425227,0.1481108019,-1.0883409634,0.3125077388,3.6947641951,4.8627484993,-0.4472553607,2.3195047862,-0.8755374237,,,
0.6718750000,43,1.8294112743,1.8278350900,4.9134493360,1.1357980577,2.1018774111,8.3851906168,0.1721706078,-1.0938487305,0.0589710881,3.5812392706,4.5183204599,-0.8411748986,2.0054254709,-1.8826393874,,,
0.6757812500,43,2.0270497512,1.1650742784,3.3083985710,1.1573827492,1.8805400742,8.9447114104,0.1810971252,-1.1199735954,-0.2673692895,3.3553726588,4.0325788941,-1.2293583194,1.5862640782,-2.9169140701,,,
0.6796875000,43,2.2252989953,0.4707532941,1.6514514585,1.1742866038,1.5929811286,9.3696020342,0.1756466211,-1.1565029855,-0.6520575935,3.0269615585,3.4184198108,-1.6047853843,1.0735305381,-3.9582107731,,,
0.6835937500,43,2.4207716997,-0.2418650309,-0.0294770647,1.1838612929,1.2487382463,9.6465390299,0.1572549371,-1.1920414888,-1.0772094778,2.6102743580,2.6933715382,-1.9602793043,0.4831454267,-4.9841379697,,,
0.6875000000,44,2.6095896143,-0.9580645168,-1.7058586882,1.1836126519,0.8593849850,9.7652035408,0.1280255014,-1.2146443671,-1.5219815124,2.1235742709,1.8792376035,-2.2885288063,-0.1648544456,-5.9704175337,,,
0.6914062500,44,2.7873002988,-1.6624215002,-3.3494605838,1.1712025190,0.4377853017,9.7192524805,0.0905341898,-1.2128159298,-1.9638486147,1.5879196294,1.0011330226,-2.5825402617,-0.8474730184,-6.8918126139,,,
0.6953125000,44,2.9486100828,-2.3397255391,-4.9333510415,1.1442836700,-0.0027817044,9.5068576829,0.0475588265,-1.1765557622,-2.3802632427,1.0255540609,0.0861972125,-2.8362117307,-1.5403751523,-7.7233870757,,,
0.6992187500,44,3.0872015278,-2.9756467776,-6.4325419257,1.1004060980,-0.4492020635,9.1307645120,0.0019003051,-1.0979534142,-2.7498918686,0.4584508781,-0.8375486990,-3.0446233939,-2.2192796292,-8.4416046168,,,
0.7031250000,45,3.1958487753,-3.5569142769,-7.8241126755,1.0371759220,-0.8885925387,8.5979946149,-0.0436330586,-0.9710423901,-3.0528921411,-0.0925580762,-1.7419249850,-3.2038938833,-2.8606866749,-9.0249149717,,,
0.7070312500,45,3.2668576977,-4.0711311283,-9.0870649258,0.9526542827,-1.3080228365,7.9193810617,-0.0861544937,-0.7910974518,-3.2704229736,-0.6080562198,-2.5990131859,-3.3108072058,-3.4420654055,-9.4538910212,,,
0.7109375000,45,3.2926869252,-4.5066039968,-10.2023233467,0.8457989707,-1.6943105947,7.1091014828,-0.1226708902,-0.5539365691,-3.3842023674,-1.0700763009,-3.3816410432,-3.3625684888,-3.9420303043,-9.7113292967,,,
0.7148437500,45,3.2665613728,-4.8525148501,-11.1531217998,0.7167179505,-2.0342170747,6.1842966524,-0.1501607403,-0.2557898812,-3.3769586981,-1.4623060757,-4.0642212470,-3.3569054229,-4.3409815266,-9.7827229875,,,
0.7187500000,46,3.1829650396,-5.0994665182,-11.9256658663,0.5666399286,-2.3150583217,5.1647504778,-0.1657368814,0.1060721796,-3.2340214555,-1.7706311367,-4.6239239388,-3.2924489837,-4.6222621744,-9.6571832800,,,
0.7226562500,46,3.0379822124,-5.2401451842,-12.5097390442,0.3976909585,-2.5254779327,4.0725098196,-0.1668540184,0.5322391708,-2.9454959317,-1.9838904518,-5.0418947235,-3.1691420509,-4.7734534259,-9.3285143592,,,
0.7265625000,46,2.8294666416,-5.2697894896,-12.8989893910,0.2126472002,-2.6560914215,2.9313033591,-0.1515427080,1.0201430177,-2.5080481852,-2.0946047094,-5.3041982357,-2.9884686603,-4.7873071147,-8.7960326049,,,
0.7304687500,46,2.5570095423,-5.1863401448,-13.0908895315,0.0147756208,-2.6998901469,1.7656964322,-0.1186538141,1.5635743058,-1.9255835471,-2.0994935524,-5.4023451220,-2.7534861912,-4.6620530807,-8.0649058752,,,
0.7343750000,47,2.2217385287,-4.9903720263,-13.0865503308,-0.1922340686,-2.6524979450,0.6000469372,-0.0680643335,2.1528301938,-1.2088082922,-1.9997021350,-5.3334590598,-2.4687729073,-4.4011749001,-7.1460610350,,,
0.7382812500,47,1.8260934432,-4.6849926373,-12.8905392565,-0.4043057633,-2.5124167827,-0.5425608323,-0.0007656694,2.7752629814,-0.3742637257,-1.8007234056,-5.1002104190,-2.1403631421,-4.0129167901,-6.0558279443,,,
0.7421875000,47,1.3737818379,-4.2758006925,-12.5106877713,-0.6170342032,-2.2812627229,-1.6411928569,0.0812270661,3.4159124651,0.5565184750,-1.5120054075,-4.7105886961,-1.7756110926,-3.5096771258,-4.8154146700,,,
0.7460937500,47,0.8700279251,-3.7708607785,-11.9577679837,-0.8257718649,-1.9638401522,-2.6776150437,0.1751385838,4.0580623649,1.5575284580,-1.1462163969,-4.1775032384,-1.3828640734,-2.9072525309,-3.4501943852,,,
0.7500000000,48,0.3220171025,-3.1805929405,-11.2449857733,-1.0257219178,-1.5678957481,-3.6365216034,0.2777820445,4.6837729745,2.5987434133,-0.7181994400,-3.5181791692,-0.9709161403,-2.2238645950,-1.9887880016,,,
0.7539062500,48,-0.2607574674,-2.5175251767,-10.3874031495,-1.2120245024,-1.1035574877,-4.5055617094,0.3858637109,5.2745150013,3.6469797311,-0.2438182366,-2.7533746270,-0.5483847505,-1.4790635623,-0.4620460432,,,
0.7578125000,48,-0.8665690400,-1.7959509489,-9.4015082009,-1.3798710611,-0.5826757675,-5.2752949249,0.4961510923,5.8119263622,4.6673215268,0.2609300563,-1.9065286022,-0.1232597184,-0.6927790295,1.0978715647,,,
0.7617187500,48,-1.4820850522,-1.0315953772,-8.3050896625,-1.5247090956,-0.0183634852,-5.9391311366,0.6055091546,6.2785606723,5.6249451633,0.7801749051,-1.0029772355,0.2971877861,0.1152223481,2.6581634224,,,
0.7656250000,49,-2.0933647655,-0.2413716707,-7.1173641535,-1.6425452619,0.5751203541,-6.4932333942,0.7108958108,6.6584617323,6.4869530820,1.2977594063,-0.0693097522,0.7061569431,0.9254513859,4.1858237148,,,
0.7695312500,49,-2.6868115887,0.5567952109,-5.8590912290,-1.7302465901,1.1822908844,-6.9363455718,0.8094157294,6.9375325983,7.2238787579,1.7965779919,0.8672035736,1.0969714248,1.7186739175,5.6480641179,,,
0.7734375000,49,-3.2497049327,1.3442147265,-4.5523751931,-1.7856986467,1.7865061573,-7.2695411740,0.8984601144,7.1038301384,7.8107204893,2.2583536364,1.7792865561,1.4629428894,2.4761564079,7.0129907231,,,
0.7773437500,49,-3.7702446929,2.1018889199,-3.2200596421,-1.8077761909,2.3704498931,-7.4959195035,0.9758693348,7.1479138652,8.2275357375,2.6643208943,2.6405629924,1.7975821728,3.1803439560,8.2506270344,,,
0.7812500000,50,-4.2373967541,2.8111597320,-1.8849365490,-1.7962350319,2.9169700785,-7.6202736703,1.0400071422,7.0631991539,8.4596776182,2.9966618188,3.4266073662,2.0949994698,3.8156942293,9.3340514637,,,
0.7851562500,50,-4.6409572544,3.4543050306,-0.5691634215,-1.7516954433,3.4098907388,-7.6487549734,1.0896639222,6.8461138631,8.4977107393,3.2399858157,4.1158417924,2.3501455154,4.3691410980,10.2402130599,,,
0.7890625000,50,-4.9720594748,4.0148125320,0.7058596039,-1.6758012285,3.8343712672,-7.5885876279,1.1238080220,6.4959298027,8.3370395870,3.3821217476,4.6899910816,2.5586458738,4.8298798071,10.9501301389,,,
0.7929687500,50,-5.2239768674,4.4773170365,1.9192735417,-1.5714715306,4.1767092939,-7.4479022052,1.1413208715,6.0143999105,7.9774148992,3.4140363894,5.1340878116,2.7163197616,5.1887081652,11.4486049588,,,
0.7968750000,51,-5.3927996712,4.8275302156,3.0506374609,-1.4430347549,4.4239303901,-7.2356983583,1.1408899635,5.4055341123,7.4226573217,3.3293508830,5.4363521506,2.8187845112,5.4375525575,11.7239529148,,,
0.8007812500,51,-5.4775807942,5.0525882499,4.0803179964,-1.2960528729,4.5636989520,-6.9618451422,1.1211459153,4.6757740975,6.6809059355,3.1241704361,5.5883587700,2.8615579082,5.5696912747,11.7682171934,,,
0.8046875000,51,-5.4798456923,5.1419560054,4.9904652918,-1.1368232214,4.5848590666,-6.6369809241,1.0809754300,3.8345084506,5.7653317982,2.7976269764,5.5856531606,2.8407472797,5.5806580822,11.5779354556,,,
0.8085937500,51,-5.4027248981,5.0885928459,5.7662377930,-0.9717568198,4.4784817935,-6.2722375620,1.0198404663,2.8945750437,4.6947773171,2.3529543609,5.4285929395,2.7540062508,5.4693275916,11.1550927301,,,
0.8125000000,52,-5.2501328546,4.8898829840,6.3967771656,-0.8069009256,4.2390167192,-5.8788115043,0.9379578932,1.8723810690,3.4936301169,1.7985034797,5.1229664280,2.6012732651,5.2386311781,10.5077779691,,,
0.8164062500,52,-5.0262816220,4.5479996306,6.8756166753,-0.6477375982,3.8651943183,-5.4674295771,0.8363050145,0.7875248333,2.1906205772,1.1481070050,4.6800234129,2.3849907453,4.8956914078,9.6502892799,,,
0.8203125000,52,-4.7355299489,4.0697219297,7.2005482152,-0.4991760877,3.3605548629,-5.0477113212,0.7165093874,-0.3379083665,0.8168757655,0.4205655315,4.1158406211,2.1098589555,4.4515266966,8.6027444749,,,
0.8242187500,52,-4.3823748038,3.4659699510,7.3732010847,-0.3655568124,2.7336268270,-4.6274181808,0.5806982233,-1.4801105442,-0.5960229881,-0.3615285693,3.4502165657,1.7824069360,3.9205528466,7.3903913913,,,
0.8281250000,53,-3.9714232696,2.7513113898,7.3985746796,-0.2505587186,1.9977544067,-4.2116809883,0.4313483801,-2.6142433271,-2.0173267850,-1.1731881097,2.7053850186,1.4106109529,3.3199247941,6.0427371586,,,
0.8320312500,53,-3.5073508456,1.9435050135,7.2846152585,-0.1570410861,1.1705063861,-3.8024577744,0.2711412039,-3.7151191936,-3.4175723769,-1.9883090856,1.9047481616,1.0035710195,2.6686006642,4.5924777327,,,
0.8359375000,53,-2.9949570442,1.0629959802,7.0418100513,-0.0869158657,0.2726543946,-3.3985243206,0.1028162889,-4.7579930259,-4.7684934801,-2.7807509027,1.0716950815,0.5711071727,1.9860776781,3.0741787311,,,
0.8398437500,53,-2.4393729441,0.1322944353,6.6827717798,-0.0411073404,-0.6730929748,-2.9961156220,-0.0709606827,-5.7194770005,-6.0428462916,-3.5253031502,0.2285340934,0.1231945353,1.2909971442,1.5227788223,,,
0.8437500000,54,-1.8463348051,-0.8247062927,6.2218580267,-0.0195855048,-1.6432433918,-2.5900034918,-0.2476731700,-6.5784370461,-7.2144481878,-4.1985972514,-0.6043610555,-0.3306478668,0.6000196291,-0.0278431751,,,
0.8476562500,54,-1.2223495376,-1.7833376956,5.6749031830,-0.0214218623,-2.6142492363,-2.1745581623,-0.4249372291,-7.3166760450,-8.2584561270,-4.7799134117,-1.4090408218,-0.7817599289,-0.0726697144,-1.5459298882,,,
0.8515625000,54,-0.5746242900,-2.7186292917,5.0590614104,-0.0448185912,-3.5627586768,-1.7443874882,-0.6004123277,-7.9193094609,-9.1517612673,-5.2517965315,-2.1700510037,-1.2223493530,-0.7151743258,-3.0023611099,,,
0.8554687500,54,0.0892074886,-3.6057548225,4.3926235840,-0.0870962559,-4.4656235079,-1.2944563626,-0.7717077763,-8.3749093017,-9.8734349381,-5.6004689687,-2.8742411612,-1.6451704769,-1.3173502231,-4.3707268898,,,
0.8593750000,55,0.7613770548,-4.4206443908,3.6946337946,-0.1446804423,-5.3000005524,-0.8199408841,-0.9363380094,-8.6755897721,-10.4053047867,-5.8161124264,-3.5106011098,-2.0431600083,-1.8704181887,-5.6272746544,,,
0.8632812500,55,1.4340985861,-5.1408268839,2.9842785107,-0.2131576274,-6.0437379145,-0.3162097592,-1.0917184594,-8.8171536166,-10.7327641987,-5.8930751139,-4.0703126029,-2.4093031378,-2.3670066338,-6.7510068265,,,
0.8671875000,55,2.0995075138,-5.7463028446,2.2802507483,-0.2874245348,-6.6759821526,0.2208284101,-1.2351629245,-8.7992576977,-10.8457510823,-5.8299533695,-4.5469127775,-2.7367508418,-2.8014642087,-7.7239491792,,,
0.8710937500,55,2.7496216695,-6.2201103729,1.6003801872,-0.3618679821,-7.1777932924,0.7940620811,-1.3638724941,-8.6254337686,-10.7396170135,-5.6294187837,-4.9362416118,-3.0189501783,-3.1699878549,-8.5313796470,,,
0.8750000000,56,3.3765416542,-6.5484288002,0.9616442501,-0.4304885865,-7.5326182630,1.4044434793,-1.4749499860,-8.3028375868,-10.4155611560,-5.2977170944,-5.2359199871,-3.2495381361,-3.4702348046,-9.1618114176,,,
0.8789062500,56,3.9728855046,-6.7204471652,0.3803510458,-0.4869679353,-7.7266695071,2.0504257004,-1.5654766746,-7.8417678047,-9.8805014180,-4.8439397503,-5.4444588234,-3.4220076465,-3.7005222337,-9.6067482283,,,
0.8828125000,56,4.5322010357,-6.7284466008,-0.1279155562,-0.5247954788,-7.7493886632,2.7276729539,-1.6326485482,-7.2551370321,-9.1465520056,-4.2793331030,-5.5604554204,-3.5294518718,-3.8590961705,-9.8604616137,,,
0.8867187500,56,5.0490592977,-6.5683676647,-0.5488865695,-0.5375933389,-7.5941110030,3.4290268447,-1.6739394117,-6.5580583078,-8.2304255658,-3.6169183637,-5.5823847738,-3.5647649615,-3.9439728645,-9.9200735036,,,
0.8906250000,57,5.5187435291,-6.2406979514,-0.8706749729,-0.5196697051,-7.2588359085,4.1446890190,-1.6872645457,-5.7675509788,-7.1529574483,-2.8715151538,-5.5091654554,-3.5214423447,-3.9535180251,-9.7860365325,,,
0.8945312500,57,5.9367299136,-5.7511951751,-1.0849198744,-0.4666727435,-6.7468336325,4.8625968590,-1.6711331789,-4.9022196481,-5.9386740266,-2.0599988704,-5.3411907815,-3.3947386645,-3.8874745948,-9.4628189618,,,
0.8984375000,57,6.2982928886,-5.1109983388,-1.1875176201,-0.3761147976,-6.0668288586,5.5689417249,-1.6247715712,-3.9817526658,-4.6151496513,-1.2014470415,-5.0812080110,-3.1826792894,-3.7478713675,-8.9594017682,,,
0.9023437500,57,6.5984694706,-4.3360183098,-1.1786613521,-0.2475657556,-5.2326966813,6.2487266318,-1.5481791593,-3.0262348502,-3.2119918314,-0.3168793479,-4.7345256249,-2.8864746111,-3.5393219300,-8.2892345063,,,
0.9062500000,58,6.8323646986,-3.4458821028,-1.0622965244,-0.0824803926,-4.2628397405,6.8862600435,-1.4420811716,-2.0554575002,-1.7595971180,0.5714485008,-4.3084847742,-2.5102438422,-3.2686180008,-7.4695920215,,,
0.9101562500,58,6.9955606387,-2.4628815763,-0.8454112826,0.1161655351,-3.1795092450,7.4655567996,-1.3077858934,-1.0884736515,-0.2880785603,1.4409772378,-3.8116227924,-2.0603843218,-2.9439654701,-6.5206389098,,,
0.9140625000,58,7.0843689045,-1.4112531200,-0.5375916565,0.3441641866,-2.0082255386,7.9707077364,-1.1470287373,-0.1435078803,1.1732499295,2.2697243277,-3.2531040268,-1.5450935043,-2.5743640189,-5.4646555028,,,
0.9179687500,58,7.0958533952,-0.3167856050,-0.1509647488,0.5961452712,-0.7772483530,8.3863105464,-0.9619213291,0.7619341535,2.5957683505,3.0369935928,-2.6426871583,-0.9743120271,-2.1693751092,-4.3256661164,,,
0.9218750000,59,7.0277741738,0.7935414783,0.2997364177,0.8655157811,0.4830835571,8.6979969439,-0.7550546370,1.6111026775,3.9511941880,3.7240009493,-1.9910137109,-0.3599105639,-1.7391134344,-3.1293089788,,,
0.9257812500,59,6.8786556348,1.8922157652,0.7973979790,1.1444893887,1.7412759012,8.8929855527,-0.5296677086,2.3884711104,5.2115831914,4.3145476422,-1.3097578222,0.2843136688,-1.2941203210,-1.9025580050,,,
0.9296875000,59,6.6480231519,2.9522037650,1.3232176786,1.4243469668,2.9658086875,8.9605229084,-0.2897264867,3.0806050645,6.3501187314,4.7957133691,-0.6113547228,0.9431088200,-0.8449711594,-0.6730529263,,,
0.9335937500,59,6.3366454291,3.9480333036,1.8576428880,1.6958779166,4.1262316143,8.8921136357,-0.0398494439,3.6770557148,7.3425938544,5.1583388482,0.0915753760,1.6005786665,-0.4017999281,0.5318359101,,,
0.9375000000,60,5.9465610411,4.8565428513,2.3811347246,1.9498260115,5.1939696242,8.6815616650,0.2148133239,4.1707877365,8.1689723850,5.3970312173,0.7867379351,2.2409275186,0.0259640312,1.6858446026,,,
0.9414062500,60,5.4808137713,5.6571083590,2.8745097411,2.1772005479,6.1427848069,8.3249582579,0.4685724024,4.5579027024,8.8142925808,5.5096406366,1.4623328160,2.8488352682,0.4295645777,2.7643057898,,,
0.9453125000,60,4.9430574436,6.3315411551,3.3189865548,2.3694598907,6.9491109400,7.8207989756,0.7150049427,4.8368737192,9.2685528382,5.4964953955,2.1069267611,3.4095084027,0.8008041257,3.7443813273,,,
0.9492187500,60,4.3373302627,6.8640899221,3.6963174287,2.5186954629,7.5925830124,7.1703703785,0.9467173454,5.0078137545,9.5258370379,5.3598718056,2.7093264807,3.9087224839,1.1321260126,4.6053566884,,,
0.9531250000,61,3.6682232205,7.2418764092,3.9893124625,2.6179401035,8.0569110396,6.3784036515,1.1553140994,5.0722207887,9.5833809172,5.1040254970,3.2587308460,4.3331533750,1.4169725598,5.3292397332,,,
0.9570312500,61,2.9414150620,7.4557282147,4.1827503251,2.6615955554,8.3309083389,5.4537802514,1.3317482373,5.0332615863,9.4412810785,4.7357238771,3.7452070891,4.6710524846,1.6502489509,5.9016195130,,,
0.9609375000,61,2.1642911073,7.5010280692,4.2643733350,2.6458313921,8.4092524250,4.4099280305,1.4670306191,4.8962837588,9.1031373955,4.2648937784,4.1602973902,4.9130616544,1.8286515920,6.3124951505,,,
0.9648437500,61,1.3462905834,7.3781285395,4.2255974105,2.5687937847,8.2926387909,3.2646224625,1.5530883556,4.6691406245,8.5773583097,3.7049363439,4.4974860989,5.0528553087,1.9507329566,6.5567609065,,,
0.9687500000,62,0.4987863959,7.0921218100,4.0617518327,2.4305945362,7.9873243606,2.0392108297,1.5835126770,4.3620848295,7.8784494443,3.0724515633,4.7523636700,5.0873857605,2.0167203924,6.6342184125,,,
0.9726562500,62,-0.3654338432,6.6521310416,3.7719432707,2.2331901942,7.5043705526,0.7575908602,1.5540511285,3.9872550973,7.0275421970,2.3864230854,4.9225147510,5.0167130313,2.0281769232,6.5492174520,,,
0.9765625000,62,-1.2328287023,6.0705426352,3.3588150107,1.9802747090,6.8589542193,-0.5546565003,1.4628753710,3.5579727364,6.0517252649,1.6671781381,5.0073079897,4.8435968560,1.9876117228,6.3101438112,,,
0.9804687500,62,-2.0896353366,5.3625580640,2.8284422427,1.6772125565,6.0699232766,-1.8708006767,1.3107454365,3.0881133175,4.9822750238,0.9355133696,5.0077891312,4.5731136184,1.8981703196,5.9289378554,,,
0.9843750000,63,-2.9221456692,4.5461445148,2.1904046330,1.3309532832,5.1595147637,-3.1632869900,1.1011372134,2.5917276681,3.8523686631,0.2121883827,4.9267729098,4.2124847715,1.7635380770,5.4207085594,,,
0.9882812500,63,-3.7168080637,3.6421158186,1.4578520255,0.9498676805,4.1530057010,-4.4041200440,0.8402776615,2.0829079804,2.6950217807,-0.4823683865,4.7690628930,3.7711065567,1.5881174590,4.8033979002,,,
0.9921875000,63,-4.4603858324,2.6739233816,0.6472867242,0.5434920949,3.0780964810,-5.5654646788,0.5369732790,1.5757361874,1.5417177618,-1.1285392342,4.5416050965,3.2605826223,1.3773921419,4.0973967947,,,
0.9960937500,63,-5.1403773263,1.6668922189,-0.2221029802,0.1222014970,1.9639838424,-6.6204055961,0.2021845171,1.0841163224,0.4216954870,-1.7084682833,4.2533758431,2.6945119389,1.1382453327,3.3250094710,,,
1.0000000000,64,-5.7456697504,0.6470200906,-1.1294527543,-0.3031526836,0.8402625879,-7.5437221748,-0.1515727877,0.6214101577,-0.6384734214,-2.2073168173,3.9149373593,2.0879384078,0.8789841633,2.5097244956,,,
1.0039062500,64,-6.2671732598,-0.3602572387,-2.0532667601,-0.7216005796,-0.2641271491,-8.3126323423,-0.5108538686,0.1999571417,-1.6153350088,-2.6142929225,3.5377704922,1.4565932263,0.6089793580,1.6753529938,,,
1.0078125000,64,-6.6982487054,-1.3310462458,-2.9722897011,-1.1223756169,-1.3217740523,-8.9075037256,-0.8618436190,-0.1693936770,-2.4890910653,-2.9231067786,3.1335342052,0.8160966412,0.3379837384,0.8451073688,,,
1.0117187500,64,-7.0348860176,-2.2436418248,-3.8661577098,-1.4951797587,-2.3074633095,-9.3125268561,-1.1908174993,-0.4776370061,-3.2440947437,-3.1318032541,2.7133704635,0.1812382737,0.0752714421,0.0406896334,,,
1.0156250000,65,-7.2755516738,-3.0787702716,-4.7157428239,-1.8303968793,-3.1986419181,-9.5164271541,-1.4844997301,-0.7177566058,-3.8691054137,-3.2419439685,2.2874187913,-0.4344714524,-0.1711389383,-0.7184165529,,,
1.0195312500,65,-7.4207036434,-3.8195105830,-5.5031913502,-2.1192950021,-3.9757402285,-9.5132444162,-1.7303686815,-0.8846761667,-4.3571976384,-3.2573531816,1.8646530696,-1.0188543237,-0.3948775671,-1.4152337806,,,
1.0234375000,65,-7.4722335203,-4.4512639941,-6.2119275445,-2.3542688342,-4.6224677883,-9.3029849542,-1.9170230060,-0.9752300268,-4.7054854638,-3.1830504749,1.4529133967,-1.5609128333,-0.5911706758,-2.0352092951,,,
1.0273437500,65,-7.4331857943,-4.9621336467,-6.8269719787,-2.5291438313,-5.1261602643,-8.8918535055,-2.0346921087,-0.9884285203,-4.9150133401,-3.0249195060,1.0588288918,-2.0508705381,-0.7566070410,-2.5661228528,,,
1.0312500000,66,-7.3079174166,-5.3437322694,-7.3356836172,-2.6395162735,-5.4781602080,-8.2919192633,-2.0758581111,-0.9260881201,-4.9910137495,-2.7901435166,0.6874160112,-2.4806537098,-0.8890808564,-2.9983663914,,,
1.0351562500,66,-7.1025038264,-5.5920316273,-7.7286435501,-2.6830526700,-5.6741500690,-7.5203603556,-2.0358387440,-0.7935261262,-4.9432864127,-2.4879208500,0.3414817401,-2.8446350117,-0.9879982492,-3.3255940969,,,
1.0390625000,66,-6.8249676525,-5.7077531763,-8.0002108668,-2.6596503100,-5.7143518565,-6.5986169741,-1.9131613667,-0.5998373559,-4.7861698511,-2.1298556653,0.0212363535,-3.1401561555,-1.0544946792,-3.5453162180,,,
1.0429687500,66,-6.4851028848,-5.6960918334,-8.1485223238,-2.5714111330,-5.6035945796,-5.5516619520,-1.7096681286,-0.3575472731,-4.5378275583,-1.7298219217,-0.2756435075,-3.3675292503,-1.0914409488,-3.6591048030,,,
1.0468750000,67,-6.0939229501,-5.5658550386,-8.1749810914,-2.4224366742,-5.3513089739,-4.4074209515,-1.4303847485,-0.0817347485,-4.2188852248,-1.3034611028,-0.5535087644,-3.5295159789,-1.1031878978,-3.6723508225,,,
1.0507812500,67,-5.6627611223,-5.3282078188,-8.0833363831,-2.2184797903,-4.9714017066,-3.1963488997,-1.0831843560,0.2112737697,-3.8505049613,-0.8674238045,-0.8177846079,-3.6303758635,-1.0949804927,-3.5934923085,,,
1.0546875000,67,-5.2022071663,-4.9954211828,-7.8786419207,-1.9665581858,-4.4818511031,-1.9510501339,-0.6783084382,0.5053882898,-3.4522862486,-0.4384254996,-1.0737297641,-3.6747798918,-1.0721016179,-3.4328133214,,,
1.0585937500,67,-4.7213295032,-4.5801303740,-7.5665787074,-1.6746692298,-3.9039311599,-0.7056656461,-0.2278658226,0.7859331429,-3.0407935220,-0.0322677099,-1.3253922566,-3.6670851124,-1.0390931252,-3.2013144561,,,
1.0625000000,68,-4.2275073130,-4.0952737543,-7.1534152045,-1.3516396780,-3.2611331892,0.5051636837,0.2545968823,1.0401844669,-2.6293029509,0.3370710733,-1.5751905734,-3.6112484018,-0.9993958268,-2.9101341582,,,
1.0664062500,68,-3.7267668261,-3.5543812416,-6.6464187830,-1.0070054292,-2.5779722517,1.6476891596,0.7544578838,1.2573603008,-2.2285947549,0.6582399891,-1.8241231294,-3.5112179474,-0.9554504678,-2.5705463267,,,
1.0703125000,68,-3.2241987520,-2.9716752522,-6.0542449122,-0.6507953412,-1.8788649390,2.6905338022,1.2564007254,1.4284694914,-1.8479383390,0.9231483764,-2.0722051738,-3.3713765393,-0.9090090462,-2.1941273466,,,
1.0742187500,68,-2.7240543531,-2.3616683059,-5.3869085255,-0.2931870687,-1.1871644080,3.6059637559,1.7448960817,1.5464052829,-1.4953780654,1.1273152176,-2.3186584220,-3.1966626438,-0.8613197773,-1.7926100039,,,
1.0781250000,69,-2.2294233069,-1.7383764437,-4.6552884385,0.0559023010,-0.5243211759,4.3707781899,2.2047844690,1.6063669917,-1.1770853401,1.2698708575,-2.5616711747,-2.9922772720,-0.8129970338,-1.3772528726,,,
1.0820312500,69,-1.7417601072,-1.1146049266,-3.8704740796,0.3872068190,0.0909453007,4.9667984907,2.6218599110,1.6063442371,-0.8964479719,1.3532556374,-2.7979560380,-2.7632082422,-0.7636217876,-0.9579994848,,,
1.0859375000,69,-1.2606825566,-0.5017494336,-3.0433731849,0.6924298310,0.6435241265,5.3810638495,2.9833283159,1.5472534588,-0.6539473075,1.3827187744,-3.0225354163,-2.5139511520,-0.7113048142,-0.5429336595,,,
1.0898437500,69,-0.7842313200,0.0899137837,-2.1847145015,0.9644836495,1.1226038277,5.6059561945,3.2781113970,1.4325562264,-0.4481004910,1.3657016377,-3.2289993049,-2.2485964327,-0.6525425401,-0.1383042088,,,
1.0937500000,70,-0.3093153245,0.6509889436,-1.3051435299,1.1976907548,1.5217353625,5.6394778742,3.4971044579,1.2676563175,-0.2764804885,1.3111819913,-3.4100623165,-1.9710487779,-0.5825671874,0.2511235496,,,
1.0976562500,70,0.1680523110,1.1732260697,-0.4150590780,1.3879801918,1.8381392833,5.4856739034,3.6335001784,1.0595485944,-0.1356709330,1.2290551005,-3.5580541703,-1.6850429449,-0.4960639606,0.6218151068,,,
1.1015625000,70,0.6526431346,1.6501067736,0.4757192857,1.5330325104,2.0717306085,5.1548780258,3.6831189226,0.8168205236,-0.0202936344,1.1295231538,-3.6652239333,-1.3939581206,-0.3879361766,0.9713607129,,,
1.1054687500,70,1.1495696904,2.0771722035,1.3580501742,1.6322832852,2.2245149292,4.6634445187,3.6445589348,0.5496488916,0.0777019551,1.0223684343,-3.7240387947,-1.1007220072,-0.2538860159,1.2982320680,,,
1.1093750000,71,1.6633490147,2.4517915903,2.2231559292,1.6867528087,2.3005496789,4.0329812927,3.5190792548,0.2694266144,0.1687241275,0.9161037508,-3.7276395843,-0.8079903305,-0.0907888304,1.6012761768,,,
1.1132812500,71,2.1967516399,2.7725134344,3.0620590521,1.6987238213,2.3061757588,3.2893641544,3.3103013714,-0.0120379784,0.2643908148,0.8172192822,-3.6704397794,-0.5185494466,0.1030058355,1.8790987823,,,
1.1171875000,71,2.7498246421,3.0383122118,3.8650492201,1.6713170184,2.2501207718,2.4617377930,3.0238708042,-0.2835357212,0.3761036703,0.7298432945,-3.5487527218,-0.2357609446,0.3273041991,2.1295555090,,,
1.1210937500,71,3.3193867694,3.2480499642,4.6214481871,1.6080768902,2.1432085807,1.5815111990,2.6671753236,-0.5353488947,0.5137732869,0.6560131183,-3.3612863961,0.0361921810,0.5796286713,2.3495244624,,,
1.1250000000,72,3.8990983066,3.4003879314,5.3198426006,1.5127188784,1.9976446537,0.6812205186,2.2491472032,-0.7597651723,0.6848230559,0.5964569897,-3.1093404383,0.2924660590,0.8549270966,2.5350574772,,,
1.1289062500,72,4.4799593627,3.4941763694,5.9487467769,1.3891147820,1.8260618269,-0.2068531762,1.7801130528,-0.9512049729,0.8933651055,0.5514878626,-2.7966358427,0.5281412595,1.1457370813,2.6818705588,,,
1.1328125000,72,5.0509244851,3.5290786928,6.4974268487,1.2414394235,1.6405694528,-1.0522477383,1.2716030877,-1.1061854239,1.1394696157,0.5214988720,-2.4289141086,0.7389687508,1.4428896081,2.7859553871,,,
1.1367187500,72,5.5993392306,3.5060132389,6.9565207609,1.0742864449,1.4519578726,-1.8278002621,0.7360227154,-1.2233804737,1.4186530055,0.5067199762,-2.0136304482,0.9218488910,1.7364250195,2.8439819855,,,
1.1406250000,73,6.1111028906,3.4270941546,7.3182264228,0.8925803179,1.2690896866,-2.5107339445,0.1861640546,-1.3038472629,1.7218456284,0.5063048305,-1.5600232375,1.0747617896,2.0161783445,2.8532584491,,,
1.1445312500,73,6.5707315445,3.2951061010,7.5761415965,0.7012657694,1.0984695181,-3.0832011096,-0.3653333840,-1.3512192788,2.0360120879,0.5172583976,-1.0794940227,1.1962644030,2.2717570899,2.8113282888,,,
1.1484375000,73,6.9616640469,3.1129099636,7.7251115039,0.5049425216,0.9440325668,-3.5323621792,-0.9063886095,-1.3715469446,2.3453424564,0.5338849365,-0.5858160263,1.2850141631,2.4922203905,2.7156145049,,,
1.1523437500,73,7.2670762910,2.8832617769,7.7614530376,0.3076854002,0.8072343033,-3.8502039184,-1.4256480064,-1.3726327292,2.6327059014,0.5481510507,-0.0946059030,1.3397847737,2.6661364847,2.5635692118,,,
1.1562500000,74,7.4711618032,2.6092442864,7.6836414971,0.1131702491,0.6874613157,-4.0332564105,-1.9124952783,-1.3630487067,2.8810108017,0.5507752699,0.3780965099,1.3600912099,2.7824602556,2.3534580462,,,
1.1601562500,74,7.5605180530,2.2950591438,7.4931736525,-0.0750015788,0.5826415920,-4.0822531949,-2.3570880075,-1.3512463879,3.0742490792,0.5324300076,0.8176862887,1.3471018386,2.8320140823,2.0854406292,,,
1.1640625000,74,7.5252053568,1.9466608835,7.1951506077,-0.2530283688,0.4898457381,-4.0017312515,-2.7505379786,-1.3450618747,3.1982127019,0.4845453401,1.2125360962,1.3043194230,2.8088565567,1.7623901172,,,
1.1679687500,74,7.3592790297,1.5718482809,6.7982945380,-0.4168605307,0.4057318849,-3.7996203655,-3.0851859648,-1.3515621420,3.2410195369,0.3997420496,1.5547398599,1.2377031436,2.7109221787,1.3901027523,,,
1.1718750000,75,7.0609379077,1.1798491878,6.3144898806,-0.5623455544,0.3268513118,-3.4869231781,-3.3548142266,-1.3768824196,3.1935927820,0.2723824886,1.8401686015,1.1553177862,2.5399041876,0.9769916565,,,
1.1757812500,75,6.6326026571,0.7807895487,5.7582100514,-0.6853744706,0.2499591569,-3.0775106866,-3.5546658534,-1.4257236962,3.0501488951,0.0996542390,2.0683505034,1.0668920704,2.3008951601,0.5336667815,,,
1.1796875000,75,6.0811178157,0.3854380190,5.1461324215,-0.7818793128,0.1724501307,-2.5878653090,-3.6812648945,-1.5004888804,2.8086721157,-0.1169763372,2.2425713384,0.9835905790,2.0023168519,0.0727397414,,,
1.1835937500,75,5.4179906426,0.0052760515,4.4969252846,-0.8477197034,0.0928719376,-2.0364819754,-3.7321785916,-1.6003968509,2.4713261918,-0.3707024168,2.3700877813,0.9179155223,1.6561570820,-0.3911668467,,,
1.1875000000,76,4.6593755239,-0.3474417436,3.8309062467,-0.8786536255,0.0112987248,-1.4427721932,-3.7059361048,-1.7210595696,2.0447252165,-0.6495591543,2.4619165783,0.8833269590,1.2779744543,-0.8415626897,,,
1.1914062500,76,3.8255434443,-0.6600602554,3.1692788662,-0.8705785580,-0.0706622744,-0.8256606662,-3.6022374086,-1.8548174492,1.5399367437,-0.9381183197,2.5317298795,0.8932464905,0.8860823127,-1.2607555005,,,
1.1953125000,76,2.9398216089,-0.9204543158,2.5329441209,-0.8200697414,-0.1502660539,-0.2023269645,-3.4223833471,-1.9917272647,0.9720980922,-1.2200688791,2.5939534067,0.9595578334,0.4998703270,-1.6310729933,,,
1.1992187500,76,2.0272645741,-1.1182087257,1.9411898566,-0.7250535073,-0.2242150502,0.4125273890,-3.1696950884,-2.1207728244,0.3596558019,-1.4805223914,2.6617603872,1.0911448570,0.1378852731,-1.9362785634,,,
1.2031250000,77,1.1134027276,-1.2455551090,1.4106111507,-0.5853685185,-0.2891463437,1.0068570689,-2.8497177252,-2.2308474675,-0.2765942798,-1.7071534105,2.7457385136,1.2930187948,-0.1835409783,-2.1627088683,,,
1.2070312500,77,0.2232346983,-1.2978028309,0.9543743000,-0.4030551034,-0.3419136858,1.5711809846,-2.4701899764,-2.3113438106,-0.9144643474,-1.8901625465,2.8534712438,1.5661522328,-0.4508232405,-2.2999252983,,,
1.2109375000,77,-0.6196399627,-1.2734285556,0.5816433551,-0.1824098685,-0.3798121847,2.0985148183,-2.0409201552,-2.3525518070,-1.5313175274,-2.0218162992,2.9895823571,1.9076307719,-0.6532182657,-2.3410463632,,,
1.2148437500,77,-1.3939400641,-1.1742085929,0.2969338634,0.0700313888,-0.4009545213,2.5843638698,-1.5736847963,-2.3462045437,-2.1052164794,-2.0963741413,3.1555649151,2.3106025220,-0.7831288306,-2.2830622576,,,
1.2187500000,78,-2.0816854381,-1.0055856478,0.0994043378,0.3454915002,-0.4048139112,3.0265561491,-1.0821095366,-2.2862933145,-2.6164779096,-2.1105974189,3.3491325334,2.7638659122,-0.8368395100,-2.1272297110,,,
1.2226562500,78,-2.6690102871,-0.7770559476,-0.0176000594,0.6330206554,-0.3926924689,3.4246834913,-0.5813821850,-2.1698791836,-3.0494504062,-2.0643520764,3.5634711891,3.2514485615,-0.8152703188,-1.8793421011,,,
1.2265625000,78,-3.1465409772,-0.5021499505,-0.0663817108,0.9198037566,-0.3677980393,3.7791668180,-0.0876850847,-1.9974069313,-3.3938438790,-1.9606709083,3.7870399055,3.7527284979,-0.7241247404,-1.5495814443,,,
1.2304687500,78,-3.5092897444,-0.1977655074,-0.0639999303,1.1917580575,-0.3348000277,4.0902588273,0.3826361600,-1.7721965199,-3.6448004916,-1.8050845121,4.0042539978,4.2433787459,-0.5732057868,-1.1518696693,,,
1.2343750000,79,-3.7562755770,0.1169844854,-0.0309173418,1.4342877091,-0.2990438631,4.3573845801,0.8140293933,-1.4992498374,-3.8013756740,-1.6045853723,4.1967990220,4.6969252756,-0.3752669674,-0.7029440275,,,
1.2382812500,79,-3.8901699322,0.4219760342,0.0103858994,1.6329900102,-0.2657963719,4.5790159793,1.1926253938,-1.1839464717,-3.8640023070,-1.3667722126,4.3449763001,5.0863859520,-0.1450179384,-0.2215112281,,,
1.2421875000,79,-3.9171447806,0.6969487938,0.0365126058,1.7741908450,-0.2398366351,4.7529396937,1.5068938861,-0.8313143769,-3.8322586830,-1.0994769605,4.4286160546,5.3855050431,0.1013439621,0.2723031317,,,
1.2460937500,79,-3.8468886588,0.9219777288,0.0239075161,1.8453197388,-0.2254652619,4.8765695641,1.7479921215,-0.4462631515,-3.7042576216,-0.8108112293,4.4275339663,5.5694201082,0.3461740589,0.7572536469,,,
1.2500000000,80,-3.6925795875,1.0777909399,-0.0505481717,1.8352196780,-0.2267631953,4.9470219045,1.9098530060,-0.0346120566,-3.4780828117,-0.5093707904,4.3218810826,5.6149663718,0.5703966532,1.2112454649,,,
1.2539062500,80,-3.4705456335,1.1462957523,-0.2088322388,1.7344996982,-0.2478322460,4.9609406348,1.9891499692,0.3957482279,-3.1544365438,-0.2043483238,4.0928001324,5.5010323153,0.7538868033,1.6118135754,,,
1.2578125000,80,-3.1994573421,1.1115056965,-0.4707782148,1.5359839860,-0.2928118565,4.9143039961,1.9852708346,0.8343224936,-2.7389115984,0.0945839495,3.7235664897,5.2093163039,0.8763647532,1.9369364019,,,
1.2617187500,80,-2.8991493215,0.9607372384,-0.8528097015,1.2352228925,-0.3656073921,4.8024813413,1.9003355864,1.2684818839,-2.2426280356,0.3776436662,3.2010569714,4.7255458168,0.9186786710,2.1661438243,,,
1.2656250000,81,-2.5893806176,0.6857204271,-1.3666461205,0.8309833754,-0.4693795411,4.6206372823,1.7391922598,1.6847008951,-1.6811097645,0.6354990598,2.5171866238,4.0409137985,0.8642174473,2.2817491845,,,
1.2695312500,81,-2.2888116576,0.2833281260,-2.0182183595,0.3256729274,-0.6058800099,4.3643729852,1.5093106954,2.0699393504,-1.0723085722,0.8599362263,1.6700115270,3.1533768608,0.7002396679,2.2700188533,,,
1.2734375000,81,-2.0142290151,-0.2440933799,-2.8068711817,-0.2742849223,-0.7747078994,4.0304300851,1.2205718874,2.4126620533,-0.4348836625,1.0445762777,0.6644360667,2.0685809229,0.4190235053,2.1221864521,,,
1.2773437500,81,-1.7798655032,-0.8885936096,-3.7248055711,-0.9581206535,-0.9725870915,3.6173738579,0.8850246767,2.7034212657,0.2127422772,1.1855855232,-0.4873587636,0.8003550884,0.0187859981,1.8352994868,,,
1.2812500000,82,-1.5967396534,-1.6365445983,-4.7567644594,-1.7105370669,-1.1928570900,3.1262749161,0.5166507183,2.9352367513,0.8527517980,1.2822193317,-1.7657058454,-0.6292264491,-0.4957531825,1.4128358344,,,
1.2851562500,82,-1.4721576346,-2.4687279930,-5.8801024959,-2.5118519566,-1.4254358443,2.5613922522,0.1310706527,3.1039394133,1.4682002864,1.3369179176,-3.1435973153,-2.1902547820,-1.1133600094,0.8648951920,,,
1.2890625000,82,-1.4096095929,-3.3608295918,-7.0654144511,-3.3385783197,-1.6574345912,1.9307293550,-0.2549393905,3.2083590037,2.0434198961,1.3547265628,-4.5874044419,-3.8459197673,-1.8169433074,0.2077442981,,,
1.2929687500,82,-1.4091385154,-4.2844497766,-8.2777480266,-4.1643950274,-1.8743792205,1.2462078247,-0.6241931442,3.2501005916,2.5644121227,1.3421143276,-6.0582346056,-5.5539264349,-2.5847719063,-0.5373137782,,,
1.2968750000,83,-1.4679946400,-5.2084308997,-9.4781941077,-4.9613149934,-2.0617345157,0.5232134520,-0.9600253511,3.2328529869,3.0189341893,1.3056359365,-7.5136992063,-7.2681989986,-3.3919238696,-1.3454673737,,,
1.3007812500,83,-1.5812203778,-6.1001029822,-10.6255059918,-5.7008017611,-2.2062712834,-0.2205239937,-1.2472019072,3.1615459147,3.3962034802,1.2510410979,-8.9096598899,-8.9405613735,-4.2115673377,-2.1898398301,,,
1.3046875000,83,-1.7418700678,-6.9261378367,-11.6774596757,-6.3546517864,-2.2968526433,-0.9664355484,-1.4725774531,3.0418690503,3.6865562277,1.1832222820,-10.2015599655,-10.5221151400,-5.0157869761,-3.0424376099,,,
1.3085937500,83,-1.9408513958,-7.6530343345,-12.5919136940,-6.8956342941,-2.3244693916,-1.6964901134,-1.6253775569,2.8804448734,3.8816376934,1.1068821459,-11.3452621474,-11.9642561120,-5.7759372222,-3.8745347726,,,
1.3125000000,84,-2.1667146874,-8.2476093414,-13.3278219706,-7.2980725015,-2.2817477461,-2.3939851791,-1.6971867209,2.6854173270,3.9754664425,1.0272985579,-12.2977408638,-13.2195823486,-6.4628290168,-4.6568593415,,,
1.3164062500,84,-2.4058510328,-8.6779792040,-13.8465804602,-7.5386240435,-2.1624718045,-3.0436448019,-1.6819029064,2.4667900588,3.9660643425,0.9504399138,-13.0182051620,-14.2431231539,-7.0472563225,-5.3601663323,,,
1.3203125000,84,-2.6433443104,-8.9152597289,-14.1138996006,-7.5973976010,-1.9616586034,-3.6313470593,-1.5759223240,2.2359008828,3.8567357022,0.8821054842,-13.4700166536,-14.9941634018,-7.5012389597,-5.9565662710,,,
1.3242187500,84,-2.8642945454,-8.9357209627,-14.1019765965,-7.4592933567,-1.6763474854,-4.1440116842,-1.3786023965,2.0039665813,3.6560306968,0.8264935013,-13.6231926879,-15.4385010525,-7.7998987229,-6.4214254876,,,
1.3281250000,85,-3.0551165897,-8.7227488532,-13.7913977260,-7.1152462826,-1.3067664527,-4.5700269069,-1.0927752579,1.7802844395,3.3760892471,0.7850872914,-13.4567482758,-15.5505717182,-7.9234007496,-6.7351670797,,,
1.3320312500,85,-3.2043453596,-8.2679874513,-13.1722181944,-6.5630239046,-0.8572683025,-4.9001899593,-0.7249898319,1.5709492343,3.0300495227,0.7565802341,-12.9600673340,-15.3148243963,-7.8582679800,-6.8842689642,,,
1.3359375000,85,-3.3027964012,-7.5714592636,-12.2440517844,-5.8074034460,-0.3365603364,-5.1287488403,-0.2853188455,1.3786563530,2.6298480771,0.7378472346,-12.1329996748,-14.7260840460,-7.5977296359,-6.8612157197,,,
1.3398437500,85,-3.3432864054,-6.6409664624,-11.0154636724,-4.8598159376,0.2428375908,-5.2540187335,0.2131881186,1.2035530437,2.1855469679,0.7252916910,-10.9850825080,-13.7891227244,-7.1413208211,-6.6637614277,,,
1.3437500000,86,-3.3202769233,-5.4912980061,-9.5031721205,-3.7377235496,0.8655765969,-5.2782825961,0.7551923879,1.0445839089,1.7063663722,0.7157699551,-9.5346386127,-12.5179323081,-6.4942822316,-6.2941576764,,,
1.3476562500,86,-3.2297149703,-4.1436126981,-7.7314276371,-2.4639827261,1.5144329735,-5.2071050260,1.3237075496,0.9006201702,1.2025074700,0.7067377812,-7.8082642516,-10.9350949988,-5.6672026615,-5.7588121529,,,
1.3515625000,86,-3.0691366328,-2.6250348085,-5.7316106832,-1.0662783616,2.1709117573,-5.0484877514,1.9006164894,0.7708760200,0.6863676277,0.6958509491,-5.8406406088,-9.0713198576,-4.6759514093,-5.0683698058,,,
1.3554687500,86,-2.8379341175,-0.9682471871,-3.5418149544,0.4234646653,2.8154819300,-4.8122752238,2.4670980393,0.6545438473,0.1722074521,0.6805390066,-3.6741698852,-6.9649291052,-3.5415985416,-4.2378315836,,,
1.3593750000,87,-2.5376196471,0.7891841133,-1.2061032568,1.9698494359,3.4276926558,-4.5099324138,3.0040631543,0.5500068126,-0.3255911950,0.6579474037,-1.3579478233,-4.6610080342,-2.2899524220,-3.2862808971,,,
1.3632812500,87,-2.1719207074,2.6059059379,1.2267591939,3.5350429848,3.9865127533,-4.1544971059,3.4926978515,0.4542055440,-0.7945914653,0.6253158704,1.0540430902,-2.2100593934,-0.9505550486,-2.2360404055,,,
1.3671875000,87,-1.7465923619,4.4382602395,3.7050500088,5.0800500249,4.4711163977,-3.7603819234,3.9151335040,0.3626175997,-1.2254561690,0.5805758669,3.5052103304,0.3337812218,0.4447063008,-1.1114325574,,,
1.3710937500,87,-1.2689548923,6.2419442964,6.1760317940,6.5660975890,4.8620693177,-3.3428369559,4.2551464856,0.2699035535,-1.6116663961,0.5228177197,5.9385826318,2.9147115975,1.8630071874,0.0624496770,,,
1.3750000000,88,-0.7473277442,7.9735605668,8.5877138579,7.9559587218,5.1426031075,-2.9171550823,4.4987257670,0.1708501142,-1.9482678220,0.4523183871,8.2985786896,5.4770652871,3.2716964910,1.2605759346,,,
1.3789062500,88,-0.1906058213,9.5918333871,10.8901801323,9.2150716219,5.2995804308,-2.4978806662,4.6344225678,0.0610993201,-2.2306180632,0.3700416177,10.5322012213,7.9667064765,4.6390426717,2.4582893718,,,
1.3828125000,88,0.3918758437,11.0584478194,13.0364928461,10.3124096046,5.3239181758,-2.0982286900,4.6535508105,-0.0626424594,-2.4538707013,0.2768464489,12.5898479804,10.3320188773,5.9347867576,3.6312892799,,,
1.3867187500,88,0.9902392821,12.3386302193,14.9833727522,11.2211593131,5.2105267125,-1.7296983836,4.5503822947,-0.2028762761,-2.6133312638,0.1728428699,14.4260285849,12.5246813419,7.1306994654,4.7556288786,,,
1.3906250000,89,1.5939053826,13.4016372754,16.6918417358,11.9192831382,4.9580344322,-1.4016810923,4.3224104976,-0.3617904658,-2.7054044471,0.0572325623,16.0001392840,14.5004082888,8.2011731122,5.8079623836,,,
1.3945312500,89,2.1915630451,14.2212714439,18.1278697775,12.3899804143,4.5685773205,-1.1208997980,3.9706342210,-0.5416536453,-2.7287755972,-0.0713494121,17.2772622624,16.2196906277,9.1237335995,6.7660461583,,,
1.3984375000,89,2.7713720693,14.7764843690,19.2629719813,12.6220222636,4.0477736306,-0.8907716908,3.4997514644,-0.7449414563,-2.6854982781,-0.2142560496,18.2289090630,17.6484945921,9.8794018410,7.6093674412,,,
1.4023437500,89,3.3214150951,15.0520941325,20.0747307747,12.6099674455,3.4047980063,-0.7110348713,2.9181771571,-0.9741472767,-2.5816186627,-0.3723379896,18.8337054312,18.7589200277,10.4529933024,8.3197988722,,,
1.4062500000,90,3.8303093664,15.0395699190,20.5472890752,12.3542939305,2.6523565037,-0.5779698251,2.2378644042,-1.2313172391,-2.4269998008,-0.5457231622,19.0780548810,19.5298669646,10.8335052527,8.8822354091,,,
1.4101562500,90,4.2877893913,14.7377114662,20.6718476539,11.8614302237,1.8064246357,-0.4852335372,1.4739725538,-1.5174164010,-2.2343232303,-0.7338173163,18.9567334182,19.9477021056,11.0146124230,9.2851630160,,,
1.4140625000,90,4.6850635747,14.1529719309,20.4471030712,11.1435964932,0.8857915103,-0.4249390456,0.6444577183,-1.8316916689,-2.0177265100,-0.9352971126,18.4732565227,20.0068055010,10.9951023437,9.5210773043,,,
1.4179687500,90,5.0148855534,13.2992538132,19.8794966883,10.2183778503,-0.0884198043,-0.3884743420,-0.2303527534,-2.1712337661,-1.7917600920,-1.1478691667,17.6398716880,19.7098382203,10.7790236153,9.5866969295,,,
1.4218750000,91,5.2714691626,12.1972230627,18.9831777528,9.1080578196,-1.0931445668,-0.3667955266,-1.1282010762,-2.5309009588,-1.5710367787,-1.3677798475,16.4771689950,19.0676424636,10.3754391013,9.4829887170,,,
1.4257812500,91,5.4504376670,10.8733687302,17.7796582566,7.8388257810,-2.1037534282,-0.3503649269,-2.0254213261,-2.9036115813,-1.3703089214,-1.5893423025,15.0134204540,18.0987927297,9.7978505203,9.2150530696,,,
1.4296875000,91,5.5488798930,9.3590386129,16.2971817545,6.4399554103,-3.0945949871,-0.3291888312,-2.8976160566,-3.2808130571,-1.2042686964,-1.8048659149,13.2837432633,16.8288836724,9.0634452787,8.7918807924,,,
1.4335937500,91,5.5654284128,7.6895268059,14.5698396851,4.9429804279,-4.0397997505,-0.2933239844,-3.7204952557,-3.6528552615,-1.0865052366,-2.0052047606,11.3290832492,15.2896488993,8.1922733128,8.2259566190,,,
1.4375000000,92,5.5002340772,5.9031256442,12.6364734445,3.3808564756,-4.9142520568,-0.2338438847,-4.4708128332,-4.0091421369,-1.0276793085,-2.1808108373,9.1949666758,13.5179664669,7.2063802638,7.5327060195,,,
1.4414062500,92,5.3547928814,4.0400170299,10.5394083236,1.7870991716,-5.6945274339,-0.1438830298,-5.1273049057,-4.3382170851,-1.0336132497,-2.3229393676,6.9300238584,11.5547463808,6.1289104280,6.7298257454,,,
1.4453125000,92,5.1316941961,2.1409854694,8.3230875328,0.1948941544,-6.3596465062,-0.0192824282,-5.6715336349,-4.6280897061,-1.1041707319,-2.4246331832,4.5843885831,9.4436710658,4.9832663202,5.8365588677,,,
1.4492187500,92,4.8344340968,0.2460923004,6.0327278993,-1.3638002944,-6.8916316564,0.1414070029,-6.0885480838,-4.8669478617,-1.2334054753,-2.4812320594,2.2081557983,7.2298336270,3.7924985281,4.8729882215,,,
1.4531250000,93,4.4674330058,-1.6064670678,3.7131667119,-2.8590749744,-7.2759295837,0.3374303754,-6.3673013147,-5.0440476410,-1.4107785378,-2.4903007352,-0.1499079790,4.9584501792,2.5790845876,3.8594464188,,,
1.4570312500,93,4.0362776177,-3.3811670637,1.4080144512,-4.2636962083,-7.5017344187,0.5664679643,-6.5008280384,-5.1503736814,-1.6227346412,-2.4510546294,-2.4433102975,2.6738504260,1.3650667196,2.8161223777,,,
1.4609375000,93,3.5480083408,-5.0456461881,-0.8409651540,-5.5534939470,-7.5621925094,0.8250763926,-6.4862599202,-5.1788143726,-1.8539045958,-2.3636009468,-4.6285466686,0.4187748169,0.1722485918,1.7628297689,,,
1.4648437500,93,3.0111579736,-6.5710856610,-2.9945159401,-6.7076208160,-7.4544771330,1.1088520898,-6.3247729682,-5.1239562650,-2.0876502706,-2.2284510537,-6.6658462042,-1.7662397142,-0.9779590010,0.7187615089,,,
1.4687500000,94,2.4353731203,-7.9326644173,-5.0168263998,-7.7088600202,-7.1797680052,1.4124677345,-6.0215006934,-4.9818476498,-2.3062655404,-2.0465809606,-8.5201369943,-3.8436619992,-2.0652495171,-0.2979552704,,,
1.4726562500,94,1.8307564371,-9.1101127323,-6.8766993284,-8.5440520340,-6.7431839470,1.7297782191,-5.5853654844,-4.7500383468,-2.4914747103,-1.8198614913,-10.1621361171,-5.7800263641,-3.0715056016,-1.2709125510,,,
1.4765625000,94,1.2072857720,-10.0882164860,-8.5486310322,-9.2045252314,-6.1536869724,2.0540727589,-5.0287634378,-4.4279485352,-2.6257038414,-1.5513345734,-11.5692235379,-7.5470403500,-3.9818157491,-2.1860785701,,,
1.4804687500,94,0.5745878286,-10.8571159971,-10.0134561951,-9.6863347657,-5.4239459342,2.3784083810,-4.3671014660,-4.0173550745,-2.6940437568,-1.2449508734,-12.7257948245,-9.1224211187,-4.7850512210,-3.0322082780,,,
1.4843750000,95,-0.0579500811,-11.4123751440,-11.2584513503,-9.9901906235,-4.5701406015,2.6959134185,-3.6182589555,-3.5226799285,-2.6862228778,-0.9049296494,-13.6230856262,-10.4902606605,-5.4739319276,-3.8009057819,,,
1.4882812500,95,-0.6809840096,-11.7548927899,-12.2770527198,-10.1210896005,-3.6116864823,2.9999957103,-2.8020474463,-2.9508684581,-2.5976387018,-0.5353433953,-14.2587352512,-11.6409294896,-6.0447612293,-4.4864179299,,,
1.4921875000,95,-1.2851931161,-11.8906842091,-13.0684222903,-10.0877538017,-2.5708467030,3.2844539704,-1.9396652366,-2.3108641971,-2.4287648903,-0.1404286317,-14.6363517950,-12.5706548488,-6.4970279529,-5.0853010475,,,
1.4960937500,95,-1.8615157349,-11.8304630285,-13.6369860975,-9.9019960810,-1.4721824023,3.5435181059,-1.0530782092,-1.6128742546,-2.1829940971,0.2744544326,-14.7650975204,-13.2809087713,-6.8329364049,-5.5960599848,,,
1.5000000000,96,-2.4015215123,-11.5889490225,-13.9919218255,-9.5780966033,-0.3418111672,3.7718424183,-0.1642925367,-0.8676791872,-1.8638414097,0.7018628559,-14.6590972638,-13.7776867469,-7.0568429090,-6.0188040299,,,
1.5039062500,96,-2.8977117072,-11.1839369383,-14.1465130078,-9.1322104721,0.7935048675,3.9644794524,0.7054040691,-0.0861709678,-1.4728675194,1.1320559975,-14.3364900853,-14.0707183077,-7.1746315122,-6.3549332539,,,
1.5078125000,96,-3.3435954440,-10.6352809900,-14.1173287496,-8.5817780793,1.9073647718,4.1168777883,1.5360875403,0.7208248231,-1.0092935260,1.5537907812,-13.8181634232,-14.1726450367,-7.1931503885,-6.6068419616,,,
1.5117187500,96,-3.7335441577,-9.9639804327,-13.9232760517,-7.9449168283,2.9747102121,4.2249482640,2.3096397705,1.5424903670,-0.4712712525,1.9557009289,-13.1264443956,-14.0982219377,-7.1198394129,-6.7776142979,,,
1.5156250000,97,-4.0625852187,-9.1914909391,-13.5846396567,-7.2398230847,3.9726436996,4.2852154193,3.0100231324,2.3678162136,0.1421146546,2.3274607962,-12.2841118546,-13.8636176436,-6.9625951259,-6.8707220010,,,
1.5195312500,97,-4.3263360543,-8.3392745395,-13.1222208171,-6.4842473303,4.8809748440,4.2950279360,3.6234952539,3.1853634827,0.8291622354,2.6601714982,-11.3139704098,-13.4858658954,-6.7298007955,-6.8897873184,,,
1.5234375000,97,-4.5211555579,-7.4284824228,-12.5566049638,-5.6950837024,5.6824822745,4.2527695029,4.1388519112,3.9830876542,1.5846418549,2.9460616641,-10.2389384961,-12.9824394900,-6.4303540696,-6.8384639371,,,
1.5273437500,97,-4.6443952523,-6.4796094228,-11.9074971581,-4.8880603557,6.3629943398,4.1580194852,4.5477151313,4.7483228041,2.3994270328,3.1781272531,-9.0822997997,-12.3708270312,-6.0734935124,-6.7203923329,,,
1.5312500000,98,-4.6945358979,-5.5120195030,-11.1930601113,-4.0774785829,6.9114436427,4.0116623791,4.8448124080,5.4679934888,3.2602129585,3.3502996105,-7.8676598014,-11.6679863685,-5.6683123507,-6.5390989223,,,
1.5351562500,98,-4.6710871144,-4.5433858264,-10.4292933064,-3.2759597153,7.3199963257,3.8159849386,5.0281531211,6.1290293949,4.1491510171,3.4581779165,-6.6183628915,-10.8896766599,-5.2230673235,-6.2977519736,,,
1.5390625000,98,-4.5743330474,-3.5892097535,-9.6296073750,-2.4942203901,7.5842264083,3.5747814166,5.0990205806,6.7188418250,5.0436227179,3.4997891891,-5.3565478690,-10.0498546588,-4.7446232274,-5.9988625216,,,
1.5429687500,98,-4.4051590233,-2.6625876914,-8.8047500362,-1.7409634311,7.7031858294,3.2934163980,5.0617556291,7.2256763754,5.9165346149,3.4757364990,-4.1023314845,-9.1603990912,-4.2384178668,-5.6441728407,,,
1.5468750000,99,-4.1651645925,-1.7742831717,-7.9631018680,-1.0229754273,7.6792055284,2.9787227400,4.9233648163,7.6387531153,6.7373911795,3.3885357953,-2.8735514258,-8.2313090895,-3.7090903653,-5.2349430422,,,
1.5507812500,99,-3.8570618180,-0.9330162973,-7.1111754573,-0.3454309742,7.5173771220,2.6386143558,4.6930075936,7.9482999555,7.4741413392,3.2415581906,-1.6861084877,-7.2712761573,-3.1615161583,-4.7726256765,,,
1.5546875000,99,-3.4851289208,-0.1457942110,-6.2540580655,0.2877234622,7.2248458187,2.2814133713,4.3814213189,8.1457189482,8.0955223812,3.0383083635,-0.5545241741,-6.2883215890,-2.6017102236,-4.2596646281,,,
1.5585937500,99,-3.0554291738,0.5818790754,-5.3956186148,0.8734762544,6.8101820866,1.9150702212,4.0003647285,8.2240593559,8.5734141163,2.7825451871,0.5078028680,-5.2901671561,-2.0371142028,-3.7000495500,,,
1.5625000000,100,-2.5756870852,1.2459529084,-4.5385217269,1.4096214059,6.2830559117,1.5465292071,3.5621664876,8.1786994568,8.8846902814,2.4790780413,1.4888539648,-4.2842330840,-1.4762002422,-3.0994272878,,,
1.5664062500,100,-2.0549601159,1.8438402036,-3.6842607980,1.8947322587,5.6542276620,1.1813762122,3.0794089165,8.0079115758,9.0122944032,2.1345348815,2.3785249735,-3.2774497244,-0.9277580456,-2.4648755698,,,
1.5703125000,100,-1.5032837894,2.3743707349,-2.8333504612,2.3281545898,4.9357438905,0.8237475962,2.5647233262,7.7130876576,8.9455799928,1.7576310529,3.1691427922,-2.2760796608,-0.4002133142,-1.8045158332,,,
1.5742187500,100,-0.9313770938,2.8376263740,-1.9856762419,2.7099816686,4.1412144833,0.4763788651,2.0306531172,7.2985950886,8.6801292136,1.3588764942,3.8558165854,-1.2856222565,0.0988737156,-1.1270774465,,,
1.5781250000,101,-0.3504530449,3.2346392897,-1.1409696320,3.0409790757,3.2859739208,0.1405981964,1.4895016343,6.7712718563,8.2173683014,0.9496156823,4.4364392519,-0.3109071663,0.5629658518,-0.4416046001,,,
1.5820312500,101,0.2279050518,3.5670377808,-0.2993193645,3.3224493512,2.3869435288,-0.1838204620,0.9530944313,6.1397304462,7.5642717014,0.5405678703,4.9112934474,0.6435819034,0.9863583758,0.2425668596,,,
1.5859375000,101,0.7919315228,3.8368070327,0.5384315446,3.5560788777,1.4622119338,-0.4987715802,0.4324849354,5.4138134989,6.7331817219,0.1405536204,5.2825389859,1.5733158342,1.3639609299,0.9157080888,,,
1.5898437500,101,1.3300161192,4.0462559765,1.3704921095,3.7438042923,0.5304731500,-0.8077138790,-0.0623180552,4.6043802791,5.7415608169,-0.2441540584,5.5538511415,2.4734252211,1.6913333974,1.5676776144,,,
1.5937500000,102,1.8311713139,4.1981613072,2.1941102777,3.8877032344,-0.3895679958,-1.1152920894,-0.5225512808,3.7233707283,4.6114365955,-0.6098936570,5.7302754357,3.3385469610,1.9650163065,2.1880674983,,,
1.5976562500,102,2.2855011120,4.2959759631,3.0056048904,3.9899149163,-1.2797595112,-1.4266367005,-0.9408042886,2.7840233212,3.3682823593,-0.9551253686,5.8182433158,4.1628157387,2.1830376030,2.7665220746,,,
1.6015625000,102,2.6845013788,4.3439393871,3.8002991610,4.0525965912,-2.1230153812,-1.7464573042,-1.3110500016,1.8010467348,2.0394303941,-1.2795450170,5.8255734516,4.9399582624,2.3453229679,3.2931359532,,,
1.6054687500,102,3.0211284668,4.3469870254,4.5723637525,4.0779052345,-2.9037938594,-2.0782835325,-1.6286529120,0.7905385321,0.6526251542,-1.5832441280,5.7612621768,5.6634051655,2.4537390046,3.7587735741,,,
1.6093750000,103,3.2896614290,4.3104690642,5.3146550441,4.0679859697,-3.6085912194,-2.4241363863,-1.8903840712,-0.2303954536,-0.7648193398,-1.8661993156,5.6350072103,6.3263664997,2.5116938073,4.1552211489,,,
1.6132812500,103,3.4854303224,4.2397613788,6.0186309907,4.0249651467,-4.2264868091,-2.7846970987,-2.0944408639,-1.2442274630,-2.1861465471,-2.1280896826,5.4565570464,6.9218723295,2.5234078794,4.4751893288,,,
1.6171875000,103,3.6046420098,4.1399238523,6.6745110348,3.9509719164,-4.7496247387,-3.1598210575,-2.2404820916,-2.2336556010,-3.5844698893,-2.3683912841,5.2351092648,7.4428351231,2.4931666260,4.7122945546,,,
1.6210937500,103,3.6445666951,4.0155643417,7.2718046714,3.8481977938,-5.1734048780,-3.5489503758,-2.3296756708,-3.1821634535,-4.9315647375,-2.5866128791,4.9790141701,7.8822162070,2.4249489721,4.8611997754,,,
1.6250000000,104,3.6040801246,3.8709292210,7.8000847812,3.7189545043,-5.4962497648,-3.9509107394,-2.3647076692,-4.0744099203,-6.1970751416,-2.7824185053,4.6958539100,8.2333294959,2.3225948541,4.9179917669,,,
1.6289062500,104,3.4842843653,3.7100908623,8.2497327937,3.5656868726,-5.7190166939,-4.3629881056,-2.3496850626,-4.8964599623,-7.3489645552,-2.9554651917,4.3927267645,8.4902475805,2.1903283408,4.8806987260,,,
1.6328125000,104,3.2889018438,3.5370688674,8.6124584662,3.3909570328,-5.8442887633,-4.7797518168,-2.2899003429,-5.6358948000,-8.3552542073,-3.1050016298,4.0765005213,8.6482582379,2.0332947131,4.7497709513,,,
1.6367187500,104,3.0242995462,3.3557925305,8.8815598139,3.1974560394,-5.8758046768,-5.1923319854,-2.1914894922,-6.2818340569,-9.1863880941,-3.2294469989,3.7538936465,8.7043272131,1.8578315457,4.5283819105,,,
1.6406250000,105,2.6991778572,3.1699111228,9.0519912549,2.9880573361,-5.8181569594,-5.5885842112,-2.0610656257,-6.8249419933,-9.8174346858,-3.3261973620,3.4313506644,8.6574939989,1.6713403883,4.2224707118,,,
1.6445312500,105,2.3240561983,2.9825814390,9.1203141900,2.7658525291,-5.6767047022,-5.9539420811,-1.9054285244,-7.2576327032,-10.2298688475,-3.3917822145,3.1146955584,8.5090360087,1.4817399360,3.8404652530,,,
1.6484375000,105,1.9107155427,2.7964404079,9.0846103123,2.5341158177,-5.4575476376,-6.2723256631,-1.7314099624,-7.5746795911,-10.4131985686,-3.4222740602,2.8086094720,8.2622528678,1.2966530401,3.3926989228,,,
1.6523437500,105,1.4717083664,2.6137896898,8.9444854142,2.2962350812,-5.1674471822,-6.5268482326,-1.5457928484,-7.7739223933,-10.3662316008,-3.4136868539,2.5162533275,7.9220518285,1.1227764457,2.8907887755,,,
1.6562500000,106,1.0199273285,2.4367411906,8.7012119372,2.0556621132,-4.8136840255,-6.7006901692,-1.3551816003,-7.8564610111,-10.0971711072,-3.3622508332,2.2393815792,7.4947224378,0.9658037890,2.3473005102,,,
1.6601562500,106,0.5681402552,2.2671110035,8.3578513108,1.8158330550,-4.4038995803,-6.7783672469,-1.1658031937,-7.8262685444,-9.6223261394,-3.2647884312,1.9787959643,6.9879594090,0.8306732264,1.7756371619,,,
1.6640625000,106,0.1284246841,2.1060977125,7.9191645989,1.5799805186,-3.9459560675,-6.7470825011,-0.9833012806,-7.6896135181,-8.9640429405,-3.1193985515,1.7346790955,6.4108686312,0.7216217868,1.1898186014,,,
1.6679687500,106,-0.2884685801,1.9539234984,7.3913162750,1.3508593154,-3.4478178170,-6.5977192603,-0.8125529400,-7.4545030847,-8.1485306475,-2.9262653087,1.5065723949,5.7737751853,0.6418340313,0.6039778397,,,
1.6718750000,107,-0.6736956253,1.8096148441,6.7815536421,1.1305042299,-2.9174383990,-6.3252622137,-0.6575008586,-7.1301177312,-7.2040277810,-2.6881276884,1.2931121266,5.0878662384,0.5928634293,0.0316744968,,,
1.6757812500,107,-1.0206857400,1.6710035345,6.0980454361,0.9201349348,-2.3626485664,-5.9287189755,-0.5210028989,-6.7261882003,-6.1594952734,-2.4100466501,1.0918407787,4.3648274593,0.5742044087,-0.5147178557,,,
1.6796875000,107,-1.3252112615,1.5349038176,5.3499060852,0.7202222509,-1.7910780929,-5.4107868678,-0.4047272140,-6.2523836194,-5.0437626604,-2.0984974904,0.8993831385,3.6166204917,0.5833446214,-1.0243291232,,,
1.6835937500,107,-1.5852086079,1.3973547261,4.5472688001,0.5306201549,-1.2101607014,-4.7775155808,-0.3091337745,-5.7178951901,-3.8849372754,-1.7601987962,0.7120402282,2.8554224864,0.6163571684,-1.4877832520,,,
1.6875000000,108,-1.8004860781,1.2538500580,3.7012611843,0.3506546561,-0.6272060023,-4.0381101964,-0.2335700478,-5.1313912289,-2.7099869023,-1.4012051340,0.5265863094,2.0936118597,0.6687863815,-1.8970158391,,,
1.6914062500,108,-1.9724268780,1.0995904849,2.8238746499,0.1791610979,-0.0494275060,-3.2048378854,-0.1764667620,-4.5013453022,-1.5446042492,-1.0265896351,0.3409164111,1.3436303486,0.7364214950,-2.2451262076,,,
1.6953125000,108,-2.1036839623,0.9298683670,1.9278199402,0.0145653402,0.5161415267,-2.2928082418,-0.1355621854,-3.8364499301,-0.4134016147,-0.6406491161,0.1542601986,0.6176228123,0.8156131707,-2.5263880250,,,
1.6992187500,108,-2.1978123077,0.7405988003,1.0263955159,-0.1449376401,1.0627310793,-1.3194224941,-0.1080799825,-3.1457644574,0.6598297008,-0.2472928014,-0.0330536706,-0.0730793701,0.9030742404,-2.7364133775,,,
1.7031250000,109,-2.2588455241,0.5288258769,0.1332906810,-0.3011794926,1.5837441607,-0.3035747797,-0.0908536173,-2.4385381769,1.6522211251,0.1496734206,-0.2200229012,-0.7184394576,0.9954339982,-2.8723839772,,,
1.7070312500,109,-2.2908811006,0.2930132720,-0.7377244442,-0.4558616617,2.0725180966,0.7351215477,-0.0804359294,-1.7238593961,2.5426008951,0.5464805108,-0.4052848519,-1.3099899333,1.0889024778,-2.9332464785,,,
1.7109375000,109,-2.2977378889,0.0330923045,-1.5731597919,-0.6104228557,2.5222156897,1.7769066236,-0.0732201641,-1.0102467557,3.3129204330,0.9395258165,-0.5871871181,-1.8408628700,1.1792530175,-2.9197821973,,,
1.7148437500,109,-2.2827326619,-0.2496175793,-2.3601192748,-0.7658863166,2.9261574419,2.8022723433,-0.0655750230,-0.3052786040,3.9498518727,1.3255441763,-0.7637015157,-2.3056818965,1.2621145292,-2.8345041145,,,
1.7187500000,110,-2.2485979231,-0.5524961754,-3.0865395519,-0.9227047863,3.2786278698,3.7923272779,-0.0539925177,0.3846037105,4.4458292491,1.7016069811,-0.9324061649,-2.7004851217,1.3333755862,-2.6814171274,,,
1.7226562500,110,-2.1975226708,-0.8716759297,-3.7414068134,-1.0806657269,3.5757890506,4.7292219117,-0.0352612757,1.0540104294,4.7990728245,2.0648601043,-1.0907114354,-3.0227847561,1.3894569009,-2.4657511587,,,
1.7265625000,110,-2.1312560792,-1.2020750844,-4.3150102195,-1.2388987307,3.8161525333,5.5965800353,-0.0066693353,1.6982729404,5.0127669621,2.4121621332,-1.2362669664,-3.2717245498,1.4273628978,-2.1937646221,,,
1.7304687500,110,-2.0511955101,-1.5374297738,-4.7992308807,-1.3959674190,4.0002849739,6.3797809870,0.0338079892,2.3130746073,5.0940564998,2.7399555607,-1.3672579830,-3.4481910194,1.4446448385,-1.8726213039,,,
1.7343750000,111,-1.9584036502,-1.8703531790,-5.1878102121,-1.5499751617,4.1299080802,7.0659755194,0.0874132231,2.8942882701,5.0534767311,3.0446161017,-1.4823148524,-3.5547563449,1.4394932565,-1.5102617611,,,
1.7382812500,111,-1.8535575596,-2.1924807034,-5.4765310946,-1.6986117552,4.2069374792,7.6438803893,0.1546514813,3.4381258589,4.9048984640,3.3232093185,-1.5800376257,-3.5954515895,1.4110553045,-1.1151962672,,,
1.7421875000,111,-1.7368871453,-2.4947594320,-5.6632756576,-1.8391365799,4.2330000267,8.1035774166,0.2354480643,3.9414848952,4.6655339570,3.5742705873,-1.6584471923,-3.5754801911,1.3598498872,-0.6962273237,,,
1.7460937500,111,-1.6081777138,-2.7678832582,-5.7479810138,-1.9683800385,4.2095877151,8.4365949090,0.3293326744,4.4022292018,4.3554674676,3.7981455575,-1.7147645964,-3.5010049657,1.2879942538,-0.2621985350,,,
1.7500000000,112,-1.4668911461,-3.0028195373,-5.7325764136,-2.0828600021,4.1385446729,8.6363992088,0.4355439225,4.8191587006,3.9965684694,3.9966404062,-1.7457332864,-3.3790792286,1.1989705553,0.1781043663,,,
1.7539062500,112,-1.3124205542,-3.1913699476,-5.6210018870,-2.1790331404,4.0223811171,8.6991453415,0.5529708096,5.1915899399,3.6111275787,4.1720909295,-1.7483856050,-3.2176989091,1.0968596860,0.6158384154,,,
1.7578125000,112,-1.1444450784,-3.3267239278,-5.4193399375,-2.2536046399,3.8640929580,8.6243142258,0.6799247093,5.5186905504,3.2206945828,4.3262405316,-1.7209183865,-3.0258847656,0.9852631055,1.0418454265,,,
1.7617187500,112,-0.9632939820,-3.4039359547,-5.1359675333,-2.3037848440,3.6665785783,8.4148814842,0.8138469712,5.7988579694,2.8453002856,4.4593763635,-1.6632938211,-2.8136780807,0.8663596915,1.4464502275,,,
1.7656250000,113,-0.7701692283,-3.4201986755,-4.7815365522,-2.3274149561,3.4320698646,8.0769330892,0.9511269612,6.0294118153,2.5028219931,4.5700191108,-1.5773102669,-2.5919309427,0.7405481292,1.8195543019,,,
1.7695312500,113,-0.5670689825,-3.3747797051,-4.3685956320,-2.3229348928,3.1620007199,7.6189680747,1.0871642120,6.2066948316,2.2081265962,4.6552064805,-1.4661187432,-2.3718011247,0.6068733501,2.1511641456,,,
1.7734375000,113,-0.3563745166,-3.2686088204,-3.9108110322,-2.2892141957,2.8574428359,7.0512688999,1.2166748793,6.3264649330,1.9719332739,4.7111715518,-1.3334026629,-2.1639638763,0.4640491899,2.4322718407,,,
1.7773437500,113,-0.1402780907,-3.1036981817,-3.4219764750,-2.2253303204,2.5198703001,6.3855920525,1.3341153727,6.3843493813,1.7998209416,4.7340701430,-1.1825878905,-1.9777157782,0.3115805018,2.6557847891,,,
1.7812500000,114,0.0796343021,-2.8826972150,-2.9151675513,-2.1304279883,2.1518109975,5.6351538458,1.4340653137,6.3761832159,1.6920368083,4.7204082161,-1.0164208169,-1.8202577812,0.1504460428,2.8171486788,,,
1.7851562500,114,0.3024227740,-2.6087952541,-2.4023376655,-2.0037593710,1.7570146792,4.8146608522,1.5114817704,6.2982001456,1.6444844528,4.6669849479,-0.8370455749,-1.6963888527,-0.0169399894,2.9144823598,,,
1.7890625000,114,0.5274935123,-2.2859392490,-1.8943796190,-1.8448893624,1.3400597822,3.9400961775,1.5618366245,6.1471588902,1.6506060059,4.5704475622,-0.6464427591,-1.6086238820,-0.1873742942,2.9483167163,,,
1.7929687500,114,0.7542047904,-1.9191423088,-1.4013997015,-1.6539506721,0.9056531374,3.0281418705,1.5812078899,5.9205004420,1.7032842100,4.4268113288,-0.4469190238,-1.5575222963,-0.3577122367,2.9211851177,,,
1.7968750000,115,0.9816208631,-1.5146630449,-0.9328876651,-1.4318346825,0.4580499758,2.0953933846,1.5663908454,5.6165649331,1.7958434538,4.2313607028,-0.2413578733,-1.5419520246,-0.5254794919,2.8372557396,,,
1.8007812500,115,1.2084866455,-1.0799738311,-0.4976315318,-1.1802790980,0.0009322762,1.1577075471,1.5150466157,5.2348286220,1.9217921509,3.9791305333,-0.0331286035,-1.5591524955,-0.6890158857,2.7020389408,,,
1.8046875000,115,1.4333370477,-0.6235685054,-0.1034385839,-0.9018760222,-0.4622144323,0.2299627009,1.4258571781,4.7761058948,2.0737156764,3.6657852822,0.1742323904,-1.6046715693,-0.8472042344,2.5221163511,,,
1.8085937500,115,1.6546276081,-0.1547235598,0.2432000084,-0.6000352398,-0.9275147644,-0.6737919905,1.2986470065,4.2426840875,2.2421954028,3.2884191991,0.3773369355,-1.6723784652,-0.9990374852,2.3048728321,,,
1.8125000000,116,1.8708471362,0.3166880640,0.5374164770,-0.2789233886,-1.3903296158,-1.5401734832,1.1344567638,3.6383774482,2.4154936758,2.8458694630,0.5730635541,-1.7547139838,-1.1433194288,2.0582625925,,,
1.8164062500,116,2.0806143670,0.7803293930,0.7761926140,0.0566027651,-1.8452922226,-2.3567246421,0.9355673872,2.9684847423,2.5800425859,2.3386339414,0.7584505766,-1.8431466456,-1.2786773497,1.7905830410,,,
1.8203125000,116,2.2827306478,1.2255657548,0.9584409782,0.4010520735,-2.2865670872,-3.1126173229,0.7054682104,2.2396435725,2.7211615367,1.7688654740,0.9304915463,-1.9286486897,-1.4038330953,1.5101547477,,,
1.8242187500,116,2.4761393922,1.6417267905,1.0849237221,0.7483452101,-2.7080404659,-3.7993403051,0.4487777957,1.4596418825,2.8235610157,1.1406748148,1.0859776375,-2.0020575143,-1.5178867584,1.2248787022,,,
1.8281250000,117,2.6597656539,2.0184589500,1.1580692364,1.0918670131,-3.1033749196,-4.4109086978,0.1711493406,0.6373384442,2.8717386314,0.4605234213,1.2214606726,-2.0543266850,-1.6203827468,0.9417848985,,,
1.8320312500,117,2.8322691207,2.3461444887,1.1817717946,1.4245452089,-3.4660666268,-4.9434908629,-0.1208227739,-0.2171798177,2.8506412460,-0.2626548358,1.3333490911,-2.0767369436,-1.7111329972,0.6667271235,,,
1.8359375000,117,2.9918009257,2.6163370303,1.1612151946,1.7389748329,-3.7896285986,-5.3946641940,-0.4197247914,-1.0922776407,2.7467790309,-1.0178260545,1.4180836185,-2.0611559725,-1.7900124049,0.4042772277,,,
1.8398437500,117,3.1358286200,2.8220998948,1.1026732594,2.0275832173,-4.0678643575,-5.7626340744,-0.7175251092,-1.9745884329,2.5495639219,-1.7926905960,1.4722693262,-2.0004438979,-1.8570252594,0.1577133938,,,
1.8437500000,118,3.2610032062,2.9581260365,1.0131884286,2.2828014543,-4.2950858277,-6.0457193981,-1.0058714522,-2.8492701787,2.2523771143,-2.5746934295,1.4926615140,-1.8890505971,-1.9127347813,-0.0710508213,,,
1.8476562500,118,3.3630241561,3.0206529355,0.9001009977,2.4972335600,-4.4661661138,-6.2422764606,-1.2764366938,-3.7007061979,1.8529911720,-3.3518036238,1.4760593111,-1.7236994112,-1.9587703026,-0.2815971712,,,
1.8515625000,118,3.4365686331,3.0073862606,0.7705729549,2.6638885138,-4.5764348456,-6.3510423805,-1.5212373341,-4.5132903021,1.3533804972,-4.1127562388,1.4193380991,-1.5038747047,-1.9979113257,-0.4749685642,,,
1.8554687500,118,3.4754546526,2.9177068716,0.6313673517,2.7765651276,-4.6215136587,-6.3716984986,-1.7328739699,-5.2718400591,0.7593094662,-4.8467340625,1.3198636201,-1.2318006056,-2.0334273175,-0.6532015447,,,
1.8593750000,119,3.4731388090,2.7532342379,0.4890397603,2.8303882667,-4.5972260639,-6.3053822929,-1.9046966047,-5.9614857705,0.0801021387,-5.5427712017,1.1762970515,-0.9118278367,-2.0678387051,-0.8184219098,,,
1.8632812500,119,3.4234278031,2.5184829883,0.3503876558,2.8223506055,-4.4997214573,-6.1549562565,-2.0309458845,-6.5673513331,-0.6713304727,-6.1892996214,0.9894605532,-0.5495194663,-2.1017050985,-0.9718936486,,,
1.8671875000,119,3.3211096992,2.2211679822,0.2227425597,2.7516486299,-4.3259110161,-5.9250042151,-2.1069257173,-7.0745651528,-1.4785149540,-6.7741389492,0.7627738938,-0.1509464585,-2.1330863744,-1.1135683761,,,
1.8710937500,119,3.1622556938,1.8718691997,0.1137465579,2.6196810407,-4.0741801953,-5.6216525809,-2.1292025783,-7.4689017378,-2.3219091413,-7.2849311667,0.5019745692,0.2774342108,-2.1579031948,-1.2424001120,,,
1.8750000000,120,2.9441802037,1.4831491188,0.0306169871,2.4297486912,-3.7451537654,-5.2523395968,-2.0957529047,-7.7378583137,-3.1800117576,-7.7097740973,0.2142672342,0.7283549590,-2.1708667473,-1.3571619711,,,
1.8789062500,120,2.6652829926,1.0685075204,-0.0207339545,2.1866364179,-3.3421919275,-4.8255935756,-2.0059822837,-7.8716571358,-4.0308070310,-8.0378014965,-0.0926335451,1.1931703067,-2.1663945769,-1.4571766148,,,
1.8828125000,120,2.3250374093,0.6415393512,-0.0363040954,1.8962673587,-2.8714121868,-4.3508021435,-1.8606449601,-7.8637996204,-4.8530165636,-8.2596645266,-0.4111565534,1.6615963137,-2.1391575416,-1.5425330969,,,
1.8867187500,120,1.9242104906,0.2153995497,-0.0141814333,1.5654947821,-2.3413057073,-3.8379325608,-1.6618081953,-7.7112275135,-5.6267365065,-8.3680600787,-0.7341599314,2.1219214913,-2.0843604174,-1.6138441098,,,
1.8906250000,121,1.4651760752,-0.1975624691,0.0455270056,1.2019449796,-1.7622373194,-3.2972132623,-1.4129997467,-7.4144465483,-6.3334060648,-8.3584176650,-1.0550906881,2.5615034587,-1.9981024439,-1.6719606137,,,
1.8945312500,121,0.9521092736,-0.5861763397,0.1407441117,0.8137795955,-1.1461058114,-2.7388452753,-1.1195278411,-6.9778640583,-6.9554363108,-8.2296193660,-1.3682610957,2.9672360514,-1.8779908926,-1.7180150188,,,
1.8984375000,121,0.3909678054,-0.9408891520,0.2673319944,0.4093359057,-0.5062191351,-2.1728042327,-0.7887959010,-6.4102183348,-7.4759949504,-7.9844185237,-1.6692397975,3.3258269636,-1.7238096608,-1.7538049081,,,
1.9023437500,121,-0.2106679125,-1.2541925445,0.4189661827,-0.0032657430,0.1427879553,-1.6087243239,-0.4303862008,-5.7247223502,-7.8793183084,-7.6292732458,-1.9551346259,3.6239853103,-1.5378735458,-1.7822091370,,,
1.9062500000,122,-0.8437750129,-1.5209215453,0.5871657164,-0.4164135171,0.7852070693,-1.0557958744,-0.0557871994,-4.9386596759,-8.1516071321,-7.1736288870,-2.2245553540,3.8487386205,-1.3248930583,-1.8073061820,,,
1.9101562500,122,-1.4980508246,-1.7383612274,0.7615920530,-0.8231319811,1.4047440503,-0.5226134136,0.3221943489,-4.0725308976,-8.2822392661,-6.6290251540,-2.4772439483,3.9879979772,-1.0915170398,-1.8340902800,,,
1.9140625000,122,-2.1621044479,-1.9061684267,0.9306036049,-1.2170752000,1.9851266153,-0.0169865152,0.6901763207,-3.1490915476,-8.2648631449,-6.0084778730,-2.7135389081,4.0313044807,-0.8458611363,-1.8679162597,,,
1.9179687500,122,-2.8237128713,-2.0261392157,1.0819856141,-1.5924393922,2.5106660866,0.4541839692,1.0349242638,-2.1925324901,-8.0980035110,-5.3263087695,-2.9338535322,3.9706029886,-0.5971496827,-1.9138745489,,,
1.9218750000,123,-3.4701047153,-2.1018361743,1.2037796209,-1.9438350533,2.9667181111,0.8848554312,1.3439531552,-1.2277641890,-7.7850758170,-4.5981775925,-3.1382339675,3.8009393744,-0.3553121350,-1.9762124933,,,
1.9257812500,123,-4.0881953592,-2.1380912257,1.2851561880,-2.2661672379,3.3401529254,1.2696311872,1.6060122254,-0.2795799531,-7.3340065884,-3.8408552831,-3.3259703205,3.5210578207,-0.1302944694,-2.0578128253,,,
1.9296875000,123,-4.6647413985,-2.1404525453,1.3172595905,-2.5545863780,3.6200044392,1.6035600694,1.8115179437,0.6284339249,-6.7567832662,-3.0714557620,-3.4952602053,3.1338801763,0.0689405505,-2.1597286964,,,
1.9335937500,123,-5.1864737572,-2.1147013606,1.2939200414,-2.8045324664,3.7983353186,1.8821714394,1.9529649243,1.4750912820,-6.0691115070,-2.3062696051,-3.6430182335,2.6467949564,0.2354477443,-2.2808440059,,,
1.9375000000,124,-5.6403205965,-2.0665353440,1.2121342497,-3.0118179989,3.8711157430,2.1018483120,2.0252621977,2.2425571781,-5.2900593592,-1.5596438019,-3.7649350203,2.0716668520,0.3649919024,-2.4177665037,,,
1.9414062500,124,-6.0137746630,-2.0013736343,1.0722910884,-3.1726566445,3.8387791032,2.2604539057,2.0259213265,2.9168120346,-4.4413561246,-0.8432711473,-3.8557327722,1.4245591524,0.4562323689,-2.5649790304,,,
1.9453125000,124,-6.2953156980,-1.9240953694,0.8782320747,-3.2835884030,3.7062331324,2.3580186252,1.9550993298,3.4877118896,-3.5460577704,-0.1658840095,-3.9093631539,0.7252896234,0.5105775949,-2.7151102116,,,
1.9492187500,124,-6.4747006653,-1.8385438072,0.6372816111,-3.3413422876,3.4823748228,2.3972911287,1.8155909402,3.9489847922,-2.6265783480,0.4669508948,-3.9188871463,-0.0030213556,0.5320572901,-2.8591046304,,,
1.9531250000,125,-6.5430202050,-1.7468516715,0.3602686828,-3.3427458489,3.1793450118,2.3839849039,1.6128579704,4.2984261209,-1.7024703298,1.0531772258,-3.8760663018,-0.7343913510,0.5273896437,-2.9862060365,,,
1.9570312500,125,-6.4926664843,-1.6489107195,0.0613462534,-3.2848020635,2.8117402711,2.3265867030,1.3550634525,4.5381871047,-0.7886330716,1.5946152024,-3.7710805478,-1.4406166958,0.5060455030,-3.0839485454,,,
1.9609375000,125,-6.3175513081,-1.5423802547,-0.2426937581,-3.1649995685,2.3958675309,2.2356949605,1.0529530179,4.6747343328,0.1053416432,2.0969318750,-3.5929159866,-2.0924219945,0.4798796598,-3.1385339440,,,
1.9648437500,125,-6.0138272317,-1.4233956106,-0.5337421551,-2.9818080206,1.9490433748,2.1230386325,0.7194163666,4.7181046367,0.9743267847,2.5688511177,-3.3306586477,-2.6612353161,0.4620594228,-3.1358483835,,,
1.9687500000,126,-5.5810075610,-1.2877359614,-0.7940929259,-2.7351951385,1.4889459847,2.0004769297,0.3686899616,4.6804793432,1.8155921374,3.0206151373,-2.9753747019,-3.1213255038,0.4654717000,-3.0629892924,,,
1.9726562500,126,-5.0230294202,-1.1319354646,-1.0080501152,-2.4269793926,1.0330380655,1.8792626102,0.0153442381,4.5745495248,2.6263732608,3.4621177680,-2.5218697767,-3.4517627090,0.5011673038,-2.9098233202,,,
1.9765625000,126,-4.3487467710,-0.9538806762,-1.1629656857,-2.0609346184,0.5980312738,1.7696591315,-0.3266866837,4.4122942681,3.4021274493,3.9012853745,-1.9696886342,-3.6377134380,0.5774006610,-2.6700457541,,,
1.9804687500,126,-3.5716182427,-0.7527782362,-1.2495926404,-1.6427077729,0.1993087508,1.6807701033,-0.6448080426,4.2045456078,4.1361720608,4.3431154673,-1.3231725119,-3.6709047800,0.6994621536,-2.3414890786,,,
1.9843750000,127,-2.7087580503,-0.5287450462,-1.2619933170,-1.1796768577,-0.1497396741,1.6203343238,-0.9281372158,3.9612752988,4.8206849990,4.7894499070,-0.5908872956,-3.5494415558,0.8700730397,-1.9258270731,,,
1.9882812500,127,-1.7797817577,-0.2824300321,-1.1973762232,-0.6808301863,-0.4383851753,1.5943315605,-1.1676527410,3.6922099782,5.4483685167,5.2392802771,0.2150662559,-3.2773216694,1.0899022733,-1.4280671801,,,
1.9921875000,127,-0.8058560593,-0.0149619555,-1.0561031842,-0.1566593397,-0.6590447584,1.6064427478,-1.3562786110,3.4073152349,6.0138057729,5.6892919009,1.0795216227,-2.8639286627,1.3578409497,-0.8561762210,,,
1.9960937500,127,0.1909001093,0.2717544657,-0.8418528442,0.3810004460,-0.8074301761,1.6575482103,-1.4889843441,3.1168470118,6.5138130319,6.1344356247,1.9845004869,-2.3235979498,1.6709229618,-0.2209243005,,,
2.0000000000,128,1.1878150894,0.5746116376,-0.5617345114,0.9192489502,-0.8823511813,1.7454517720,-1.5628716561,2.8309226346,6.9467472982,6.5684496988,2.9095023750,-1.6751950431,2.0240403180,0.4642320295,,,
2.0039062500,128,2.1621381525,0.8890247205,-0.2261265487,1.4445393122,-0.8852950561,1.8649302786,-1.5771764242,2.5588104954,7.3113770391,6.9843236037,3.8320792556,-0.9415801753,2.4097356686,1.1834946376,,,
2.0078125000,128,3.0917409099,1.2089726675,0.1518442284,1.9431972065,-0.8199252926,2.0081111866,-1.5331512929,2.3082993690,7.6061581879,7.3746863057,4.7287401372,-0.1488611274,2.8183107898,1.9194282592,,,
2.0117187500,128,3.9559695846,1.5273151475,0.5570692877,2.4019558626,-0.6915686666,2.1651295985,-1.4338633531,2.0854830087,7.8294243049,7.7320793547,5.5759987296,0.6745803099,3.2382987907,2.6539059650,,,
2.0156250000,129,4.7364253172,1.8362048309,0.9732379645,2.8084102369,-0.5067003684,2.3250007320,-1.2839858389,1.8950383577,7.9803169158,8.0491021689,6.3512853771,1.4991986109,3.6571177288,3.3690006473,,,
2.0195312500,129,5.4174775636,2.1274132258,1.3834163877,3.1513237546,-0.2724689952,2.4766194324,-1.0896406424,1.7407242387,8.0597325905,8.3184681190,7.0335337515,2.2953501811,4.0616000774,4.0475452246,,,
2.0234375000,129,5.9864481215,2.3924906656,1.7703415348,3.4207748637,0.0036098486,2.6097431957,-0.8582783860,1.6256438584,8.0705558302,8.5329977223,7.6034219533,3.0341054403,4.4381668685,4.6732615357,,,
2.0273437500,129,6.4335471566,2.6228200405,2.1165555083,3.6082108257,0.3136764011,2.7157616445,-0.5985291541,1.5520144102,8.0170247135,8.6855421779,8.0434281292,3.6877676032,4.7727075843,5.2306184008,,,
2.0312500000,130,6.7517185305,2.8097069345,2.4046492035,3.7065324688,0.6493020096,2.7880898298,-0.3199663382,1.5205910142,7.9037085165,8.7688596929,8.3379522973,4.2303085240,5.0504972436,5.7047374971,,,
2.0351562500,130,6.9364730806,2.9445682013,2.6177193814,3.7102513354,1.0011089486,2.8221571166,-0.0327940749,1.5299939906,7.7345941436,8.7754428738,8.4735764340,4.6378379543,5.2563455989,6.0814667337,,,
2.0390625000,130,6.9857072527,3.0191901782,2.7399622577,3.6156767968,1.3583264619,2.8150579479,0.2524920483,1.5761032670,7.5125152163,8.6973121519,8.4393803783,4.8890739246,5.3749561685,6.3475481840,,,
2.0429687500,130,6.8995754338,3.0260938862,2.7574517409,3.4211570637,1.7085484623,2.7649726336,0.5254703614,1.6518095944,7.2391601738,8.5260302872,8.2274004785,4.9660232862,5.3915896518,6.4910106119,,,
2.0468750000,131,6.6804997848,2.9590548817,2.6591518680,3.1274021825,2.0380359623,2.6705705992,0.7762361383,1.7473974887,6.9157082756,8.2532830795,7.8333599776,4.8551127388,5.2930985096,6.5019946833,,,
2.0507812500,131,6.3332841026,2.8136883478,2.4379545586,2.7377986983,2.3326258164,2.5306640794,0.9959495086,1.8514651990,6.5436592087,7.8720326634,7.2575373640,4.5485685289,5.0690876252,6.3739072436,,,
2.0546875000,131,5.8652360298,2.5879325721,2.0914361362,2.2585907525,2.5789197896,2.3442485347,1.1774357957,1.9519908454,6.1252538422,7.3778283603,6.5054817061,4.0455455009,4.7128693069,6.1045375335,,,
2.0585937500,131,5.2862288350,2.2823187736,1.6221770577,1.6988685347,2.7652495847,2.1108672092,1.3157066677,2.0371766250,5.6631753375,6.7697314641,5.5883743952,3.3526252896,4.2220959237,5.6967661043,,,
2.0625000000,132,4.6086635020,1.9000098558,1.0376865872,1.0703662944,2.8820525260,1.8311294105,1.4082486717,2.0959283161,5.1596902196,6.0505258970,4.5230105031,2.4836342390,3.5991719793,5.1586678873,,,
2.0664062500,132,3.8472868529,1.4466363293,0.3500574196,0.3871015234,2.9216536302,1.5072048716,1.4549841981,2.1180316181,4.6157219442,5.2262473893,3.3314507951,1.4589912107,2.8515477248,4.5030197148,,,
2.0703125000,132,3.0188151520,0.9299566970,-0.4245711719,-0.3350883196,2.8777912759,1.1431429390,1.4579196903,2.0941386246,4.0303328711,4.3053290115,2.0403476897,0.3048304816,1.9917973243,3.7463799498,,,
2.0742187500,132,2.1413586987,0.3594069595,-1.2667134097,-1.0790264644,2.7453376509,0.7448965282,1.4206050425,2.0156532013,3.4007983593,3.2977436473,0.6799248593,-0.9479664468,1.0372420254,2.9080089711,,,
2.0781250000,133,1.2337355605,-0.2542976456,-2.1543300585,-1.8266053844,2.5205141068,0.3199986068,1.3475866095,1.8746504312,2.7231675022,2.2144571645,-0.7173002555,-2.2647873009,0.0090165492,2.0089333099,,,
2.0820312500,133,0.3148367771,-0.8992986906,-3.0635575768,-2.5590771808,2.2016003822,-0.1230354473,1.2440077238,1.6640680007,1.9931037540,1.0673359772,-2.1178000416,-3.6083077119,-1.0691809254,1.0713738652,,,
2.0859375000,133,-0.5968060476,-1.5623807466,-3.9692175082,-3.2572554687,1.7898495070,-0.5753853854,1.1153980603,1.3783743240,1.2068325927,-0.1305607576,-3.4880468835,-4.9394379348,-2.1721920400,0.1185443081,,,
2.0898437500,133,-1.4832153118,-2.2285792012,-4.8451024784,-3.9017255159,1.2901844814,-1.0284746608,0.9675650083,1.0146414499,0.3620614514,-1.3645361434,-4.7951614819,-6.2181762440,-3.2740281589,-0.8254260215,,,
2.0937500000,134,-2.3270462112,-2.8809885441,-5.6642384096,-4.4731852116,0.7113331083,-1.4742877265,0.8064547852,0.5735956415,-0.5412474796,-2.6179216126,-6.0073876030,-7.4044737268,-4.3481051356,-1.7358072657,,,
2.0976562500,134,-3.1117440237,-3.5011061371,-6.3993857048,-4.9529974922,0.0653169548,-1.9054913897,0.6379187001,0.0600969943,-1.5003257106,-3.8720228898,-7.0946994010,-8.4592745323,-5.3674876946,-2.5880615214,,,
2.1015625000,134,-3.8218712723,-4.0697361545,-7.0238710246,-5.3239154849,-0.6334855582,-2.3154689444,0.4674234760,-0.5172292053,-2.5092527015,-5.1063763870,-8.0296916057,-9.3457722616,-6.3055147971,-3.3590495705,,,
2.1054687500,134,-4.4434520452,-4.5680694003,-7.5125320622,-5.5708064836,-1.3692903047,-2.6983585834,0.2997852843,-1.1469713632,-3.5586991781,-6.2992622220,-8.7885641838,-10.0306427489,-7.1367937182,-4.0282494277,,,
2.1093750000,135,-4.9640693888,-4.9783789873,-7.8424299594,-5.6811952101,-2.1255124302,-3.0491019347,0.1389722896,-1.8159052715,-4.6356592067,-7.4284241290,-9.3517943059,-10.4848802531,-7.8381426771,-4.5784577292,,,
2.1132812500,135,-5.3727742574,-5.2841766597,-7.9933233118,-5.6456332495,-2.8849988818,-3.3634199283,-0.0120253432,-2.5094902081,-5.7233337748,-8.4719747234,-9.7043437147,-10.6842558478,-8.3891084162,-4.9958371768,,,
2.1171875000,135,-5.6602318888,-5.4703056661,-7.9483101230,-5.4580586194,-3.6301896859,-3.6376632135,-0.1512744049,-3.2119856647,-6.8015169024,-9.4094300812,-9.8357548285,-10.6099157792,-8.7722045315,-5.2697778153,,,
2.1210937500,135,-5.8193518678,-5.5235048748,-7.6949136145,-5.1162234005,-4.3434651526,-3.8686249644,-0.2779328305,-3.9066480850,-7.8476020227,-10.2227250119,-9.7405807405,-10.2494853612,-8.9733651919,-5.3931281525,,,
2.1250000000,136,-5.8461982232,-5.4334763884,-7.2264131424,-4.6220928024,-5.0076582654,-4.0534580101,-0.3922162720,-4.5762826389,-8.8379823135,-10.8969795323,-9.4191853558,-9.5984742248,-8.9828774478,-5.3629129174,,,
2.1289062500,136,-5.7407548815,-5.1940255815,-6.5429236689,-3.9820666804,-5.6065579598,-4.1897281314,-0.4952521020,-5.2040494317,-9.7494780587,-11.4207972696,-8.8785015435,-8.6614310306,-8.7965388902,-5.1812009421,,,
2.1328125000,136,-5.5071753552,-4.8037481602,-5.6517639443,-3.2069298423,-6.1252787804,-4.2754922668,-0.5888043845,-5.7742569530,-10.5604391722,-11.7860436653,-8.1322057064,-7.4523396632,-8.4164693142,-4.8556138908,,,
2.1367187500,136,-5.1534036727,-4.2660317350,-4.5669844706,-2.3115220294,-6.5505134339,-4.3092542788,-0.6749257778,-6.2729639908,-11.2513318745,-11.9873243029,-7.2000537699,-5.9941049905,-7.8511339439,-4.3991499263,,,
2.1406250000,137,-4.6903825615,-3.5885891776,-3.3083608256,-1.3141972851,-6.8707808459,-4.2897660286,-0.7556460327,-6.6884015467,-11.8048871413,-12.0215654598,-6.1066253253,-4.3174061273,-7.1146125279,-3.8294003728,,,
2.1445312500,137,-4.1312363183,-2.7829898374,-1.9003874301,-0.2361972303,-7.0767586722,-4.2158205494,-0.8327926122,-7.0113381054,-12.2060946561,-11.8880276723,-4.8800447688,-2.4594004128,-6.2255968324,-3.1675404400,,,
2.1484375000,137,-3.4907158622,-1.8645140128,-0.3716563915,0.8989419348,-7.1616847837,-4.0862584485,-0.9079656110,-7.2354528152,-12.4423348265,-11.5887967516,-3.5511427500,-0.4626386158,-5.2066656692,-2.4374480367,,,
2.1523437500,137,-2.7849331810,-0.8522649288,1.2453953081,2.0659068148,-7.1217184185,-3.9003008082,-0.9826034684,-7.3576243622,-12.5037705022,-11.1294916687,-2.1530952889,1.6257685853,-4.0840254684,-1.6650237835,,,
2.1562500000,138,-2.0312091693,0.2308340815,2.9147197613,3.2380996143,-6.9561271272,-3.6581222537,-1.0580280084,-7.3779541494,-12.3839101778,-10.5197844223,-0.7211692758,3.7549771840,-2.8874032645,-0.8775259491,,,
2.1601562500,138,-1.2478336338,1.3585263291,4.5972637697,4.3881995199,-6.6672048467,-3.3614335891,-1.1353796627,-7.2994049021,-12.0801397673,-9.7733931830,0.7079127470,5.8715477328,-1.6495276726,-0.1026870671,,,
2.1640625000,138,-0.4536418756,2.5022905035,6.2521183472,5.4888698226,-6.2598963664,-3.0138383475,-1.2154377629,-7.1270898477,-11.5940360327,-8.9074358018,2.0972604595,7.9210639852,-0.4048240199,0.6324673551,,,
2.1679687500,138,0.3325665429,3.6327620211,7.8380948809,6.5136262679,-5.7412036938,-2.6208519171,-1.2984101644,-6.8673846063,-10.9313810794,-7.9413307444,3.4116338370,9.8501478453,0.8125493036,1.3029540471,,,
2.1718750000,139,1.0926554859,4.7210986911,9.3154087792,7.4377801589,-5.1195745513,-2.1896450398,-1.3838030396,-6.5271022695,-10.1019278499,-6.8956786829,4.6193171871,11.6085632702,1.9707326623,1.8870243768,,,
2.1757812500,139,1.8096722785,5.7399489480,10.6471146891,8.2392754195,-4.4045321741,-1.7286859762,-1.4704221350,-6.1129663005,-9.1190450623,-5.7915772224,5.6934774629,13.1510143424,3.0415796012,2.3669303583,,,
2.1796875000,139,2.4681482380,6.6639502423,11.8000813656,8.8992471452,-3.6066895395,-1.2474260477,-1.5564640603,-5.6315067496,-7.9993491275,-4.6505211586,6.6126849373,14.4383581687,4.0011286414,2.7291813398,,,
2.1835937500,139,3.0542063531,7.4699828967,12.7455494572,9.4022756712,-2.7380254861,-0.7560252732,-1.6396109719,-5.0892930574,-6.7623457502,-3.4945674669,7.3607347601,15.4382487393,4.8293909768,2.9644962460,,,
2.1875000000,140,3.5556405778,8.1375177978,13.4595232512,9.7364891953,-1.8120841165,-0.2649873049,-1.7170669343,-4.4932217134,-5.4300528474,-2.3461437231,7.9262580096,16.1255279482,5.5101100975,3.0678125549,,,
2.1914062500,140,3.9621409966,8.6492407663,13.9232513226,9.8937161666,-0.8437995698,0.2153977813,-1.7855292556,-3.8505592975,-4.0266031402,-1.2270356031,8.3025924094,16.4827435605,6.0310578850,3.0385813382,,,
2.1953125000,140,4.2656975806,8.9918496610,14.1238445992,9.8697552954,0.1510637450,0.6757254313,-1.8411320754,-3.1686394732,-2.5778551213,-0.1566647232,8.4880239398,16.5009163179,6.3849100097,2.8812458636,,,
2.1992187500,140,4.4610352788,9.1567362900,14.0548433197,9.6646408255,1.1565718822,1.1080201579,-1.8794199998,-2.4543915177,-1.1109861694,0.8496311719,8.4861014943,16.1802837004,6.5701952785,2.6055284974,,,
2.2031250000,141,4.5458618150,9.1402978576,13.7164782074,9.2827058132,2.1570514787,1.5059200802,-1.8954096836,-1.7140268242,0.3460700763,1.7814496674,8.3055870727,15.5305388964,6.5916580959,2.2261390382,,,
2.2070312500,141,4.5208033319,8.9438079534,13.1155080067,8.7323298697,3.1371854478,1.8644684642,-1.8837781387,-0.9531105322,1.7655204615,2.6328845074,7.9598184505,14.5702527235,6.4596935237,1.7617765907,,,
2.2109375000,141,4.3890934937,8.5729728759,12.2647198986,8.0254161640,4.0819660642,2.1797065172,-1.8391748267,-0.1769778221,3.1209934119,3.4010989719,7.4656306709,13.3255960243,6.1890420278,1.2336632529,,,
2.2148437500,141,4.1562313339,8.0373897426,11.1823007406,7.1767739610,4.9768043682,2.4483484017,-1.7566003563,0.6087763392,4.3890031913,4.0847188191,6.8422309733,11.8288362402,5.7973124924,0.6641006781,,,
2.2187500000,142,3.8298202184,7.3500802862,9.8912731082,6.2036075024,5.8079272642,2.6677052921,-1.6317603178,1.3980513536,5.5502170395,4.6828437367,6.1104070639,10.1171043548,5.3039275373,0.0755217901,,,
2.2226562500,142,3.4196407866,6.5271542607,8.4190781556,5.1252042521,6.5629114319,2.8358110421,-1.4613151667,2.1844181374,6.5902166944,5.1950316153,5.2922217301,8.2316280714,4.7297794972,-0.5097903997,,,
2.2265625000,142,2.9378065236,5.5875277387,6.7972373430,3.9627459272,7.2310637403,2.9515697145,-1.2430028205,2.9616648750,7.4997167247,5.6220465150,4.4110641709,6.2172381362,4.0974501022,-1.0695553123,,,
2.2304687500,142,2.3987441482,4.5525324776,5.0608927979,2.7390554357,7.8034738833,3.0147935993,-0.9756855081,3.7244263789,8.2744088935,5.9667975480,3.4917220231,4.1217393685,3.4315079638,-1.5814270251,,,
2.2343750000,143,1.8187970960,3.4452502856,3.2479839545,1.4781134186,8.2728135857,3.0261561289,-0.6594341157,4.4684826462,8.9145392917,6.2348771797,2.5600865140,1.9948012731,2.7583148832,-2.0234881858,,,
2.2382812500,143,1.2154288073,2.2895250622,1.3979404274,0.2043019040,8.6331075457,2.9871858602,-0.2957659511,5.1903945179,9.4240972436,6.4343909614,1.6422571932,-0.1137211746,2.1049943375,-2.3754764479,,,
