Time:128Hz,Epoch,Channel 1,Channel 2,Channel 3,Channel 4,Channel 5,Channel 6,Channel 7,Channel 8,Channel 9,Channel 10,Channel 11,Channel 12,Channel 13,Channel 14,Event Id,Event Date,Event Duration
0.0000000000,0,4230.0000000000,4216.9228515625,4230.1284179688,4211.0258789063,4212.5639648438,4204.2309570313,4183.3334960938,4222.5639648438,4217.9487304688,4221.1538085938,4240.1284179688,4244.6152343750,4222.8203125000,4207.1796875000,,,
0.0078125000,0,4214.1025390625,4200.7690429688,4216.0258789063,4199.7436523438,4205.2563476563,4191.2822265625,4177.0512695313,4216.1538085938,4211.6665039063,4222.0512695313,4230.5126953125,4226.9228515625,4210.7690429688,4199.2309570313,,,
0.0156250000,0,4194.3588867188,4186.4101562500,4200.2563476563,4191.9228515625,4194.6152343750,4180.7690429688,4169.8715820313,4209.3588867188,4207.8203125000,4220.2563476563,4216.1538085938,4212.6923828125,4199.3588867188,4184.7436523438,,,
0.0234375000,0,4200.8974609375,4192.9487304688,4193.8461914063,4189.7436523438,4206.4101562500,4193.9741210938,4170.3847656250,4207.3076171875,4209.2309570313,4213.4614257813,4208.0771484375,4213.8461914063,4194.3588867188,4179.4873046875,,,
0.0312500000,1,4200.8974609375,4195.8974609375,4193.2050781250,4190.8974609375,4224.4873046875,4201.9228515625,4165.6411132813,4210.1284179688,4208.4614257813,4207.0512695313,4205.1284179688,4209.3588867188,4192.0512695313,4177.1796875000,,,
0.0390625000,1,4193.5898437500,4175.2563476563,4182.9487304688,4184.6152343750,4215.5126953125,4187.5639648438,4164.4873046875,4201.7949218750,4198.2050781250,4203.8461914063,4191.7949218750,4193.0771484375,4180.6411132813,4173.2050781250,,,
0.0468750000,1,4182.1796875000,4167.6923828125,4174.6152343750,4174.2309570313,4197.8203125000,4179.6152343750,4155.8974609375,4187.0512695313,4186.6665039063,4195.1284179688,4181.6665039063,4182.1796875000,4171.5385742188,4162.5639648438,,,
0.0546875000,1,4187.4360351563,4174.7436523438,4174.7436523438,4169.6152343750,4191.2822265625,4183.7177734375,4158.2050781250,4187.1796875000,4184.3588867188,4181.2822265625,4185.1284179688,4190.6411132813,4176.4101562500,4170.8974609375,,,
0.0625000000,2,4189.7436523438,4179.6152343750,4177.6923828125,4176.7949218750,4200.2563476563,4189.3588867188,4161.0258789063,4196.0258789063,4190.5126953125,4180.2563476563,4193.3334960938,4195.3847656250,4180.1284179688,4178.5898437500,,,
0.0703125000,2,4187.9487304688,4175.3847656250,4171.7949218750,4176.5385742188,4198.5898437500,4183.5898437500,4160.8974609375,4189.4873046875,4183.9741210938,4181.7949218750,4181.7949218750,4186.7949218750,4163.4614257813,4169.6152343750,,,
0.0781250000,2,4185.2563476563,4174.6152343750,4172.4360351563,4177.4360351563,4189.2309570313,4182.4360351563,4158.4614257813,4187.8203125000,4183.0771484375,4186.4101562500,4172.5639648438,4185.0000000000,4158.7177734375,4166.6665039063,,,
0.0859375000,2,4199.6152343750,4181.2822265625,4180.8974609375,4188.5898437500,4195.8974609375,4188.9741210938,4164.7436523438,4194.1025390625,4191.9228515625,4190.7690429688,4185.7690429688,4197.6923828125,4172.3076171875,4177.1796875000,,,
0.0937500000,3,4194.8715820313,4178.5898437500,4174.3588867188,4186.0258789063,4201.7949218750,4184.7436523438,4162.6923828125,4187.0512695313,4189.1025390625,4187.5639648438,4190.3847656250,4192.6923828125,4173.0771484375,4176.0258789063,,,
0.1015625000,3,4181.6665039063,4166.1538085938,4164.1025390625,4169.6152343750,4192.4360351563,4179.6152343750,4160.1284179688,4178.7177734375,4180.5126953125,4183.3334960938,4175.6411132813,4181.2822265625,4167.0512695313,4164.8715820313,,,
0.1093750000,3,4186.1538085938,4167.5639648438,4174.7436523438,4168.4614257813,4189.8715820313,4183.9741210938,4159.2309570313,4183.0771484375,4182.5639648438,4182.8203125000,4179.2309570313,4190.0000000000,4174.3588867188,4168.4614257813,,,
0.1171875000,3,4190.0000000000,4172.4360351563,4180.6411132813,4174.4873046875,4185.7690429688,4177.3076171875,4157.3076171875,4184.2309570313,4185.5126953125,4179.2309570313,4191.2822265625,4198.3334960938,4177.4360351563,4176.0258789063,,,
0.1250000000,4,4190.0000000000,4168.3334960938,4172.1796875000,4175.1284179688,4182.1796875000,4172.1796875000,4156.4101562500,4178.7177734375,4181.1538085938,4181.5385742188,4181.7949218750,4191.9228515625,4169.6152343750,4175.2563476563,,,
0.1328125000,4,4190.7690429688,4173.5898437500,4176.4101562500,4177.9487304688,4190.0000000000,4182.9487304688,4154.3588867188,4179.7436523438,4178.8461914063,4187.3076171875,4180.7690429688,4190.7690429688,4173.7177734375,4171.6665039063,,,
0.1406250000,4,4193.3334960938,4174.1025390625,4178.2050781250,4170.8974609375,4183.3334960938,4178.8461914063,4155.8974609375,4181.9228515625,4180.3847656250,4184.3588867188,4191.6665039063,4195.5126953125,4182.3076171875,4182.4360351563,,,
0.1484375000,4,4187.4360351563,4162.8203125000,4169.1025390625,4165.5126953125,4172.1796875000,4166.9228515625,4149.1025390625,4179.6152343750,4187.5639648438,4189.1025390625,4186.5385742188,4189.2309570313,4181.0258789063,4179.6152343750,,,
0.1562500000,5,4185.7690429688,4158.5898437500,4164.3588867188,4168.7177734375,4176.0258789063,4172.5639648438,4150.8974609375,4183.7177734375,4191.5385742188,4190.8974609375,4175.2563476563,4181.0258789063,4176.4101562500,4172.9487304688,,,
0.1640625000,5,4180.2563476563,4161.7949218750,4165.1284179688,4167.0512695313,4184.2309570313,4184.7436523438,4157.9487304688,4199.1025390625,4193.4614257813,4185.0000000000,4176.5385742188,4180.8974609375,4179.1025390625,4172.1796875000,,,
0.1718750000,5,4189.8715820313,4162.9487304688,4166.0258789063,4166.2822265625,4184.3588867188,4182.9487304688,4158.4614257813,4190.6411132813,4187.9487304688,4179.3588867188,4175.1284179688,4187.8203125000,4180.3847656250,4176.1538085938,,,
0.1796875000,5,4185.7690429688,4163.4614257813,4166.7949218750,4170.8974609375,4178.0771484375,4174.4873046875,4147.5639648438,4169.7436523438,4180.0000000000,4175.1284179688,4170.6411132813,4183.4614257813,4177.0512695313,4165.3847656250,,,
0.1875000000,6,4181.0258789063,4157.4360351563,4158.2050781250,4162.0512695313,4174.1025390625,4176.2822265625,4153.9741210938,4171.1538085938,4179.3588867188,4173.5898437500,4164.2309570313,4174.1025390625,4165.5126953125,4157.3076171875,,,
0.1953125000,6,4175.8974609375,4155.1284179688,4150.3847656250,4153.2050781250,4189.2309570313,4190.6411132813,4159.1025390625,4186.9228515625,4185.8974609375,4182.1796875000,4161.6665039063,4171.7949218750,4158.9741210938,4152.8203125000,,,
0.2031250000,6,4171.0258789063,4150.2563476563,4144.4873046875,4154.1025390625,4190.3847656250,4186.5385742188,4158.4614257813,4183.7177734375,4182.0512695313,4177.4360351563,4154.4873046875,4167.4360351563,4153.2050781250,4146.5385742188,,,
0.2109375000,6,4166.1538085938,4142.3076171875,4143.0771484375,4155.5126953125,4166.9228515625,4168.9741210938,4150.8974609375,4168.3334960938,4169.4873046875,4157.9487304688,4145.0000000000,4158.0771484375,4146.0258789063,4140.0000000000,,,
0.2187500000,7,4171.1538085938,4148.0771484375,4145.2563476563,4155.3847656250,4163.3334960938,4166.1538085938,4150.6411132813,4162.9487304688,4161.6665039063,4150.8974609375,4147.5639648438,4163.3334960938,4147.4360351563,4141.0258789063,,,
0.2265625000,7,4166.7949218750,4158.4614257813,4146.1538085938,4158.9741210938,4177.5639648438,4176.0258789063,4158.4614257813,4176.6665039063,4167.4360351563,4159.4873046875,4155.7690429688,4168.0771484375,4152.4360351563,4145.0000000000,,,
0.2343750000,7,4165.8974609375,4159.2309570313,4149.4873046875,4160.6411132813,4178.5898437500,4178.7177734375,4162.4360351563,4178.2050781250,4167.3076171875,4153.0771484375,4155.1284179688,4166.1538085938,4150.1284179688,4138.3334960938,,,
0.2421875000,7,4173.0771484375,4154.2309570313,4152.4360351563,4159.2309570313,4175.8974609375,4171.2822265625,4153.9741210938,4155.2563476563,4153.4614257813,4136.6665039063,4154.4873046875,4169.8715820313,4148.7177734375,4139.2309570313,,,
0.2500000000,8,4167.6923828125,4151.6665039063,4148.4614257813,4158.9741210938,4178.7177734375,4167.8203125000,4146.9228515625,4149.3588867188,4153.7177734375,4153.3334960938,4158.8461914063,4172.4360351563,4152.0512695313,4140.6411132813,,,
0.2578125000,8,4170.8974609375,4158.8461914063,4154.3588867188,4164.8715820313,4182.6923828125,4174.1025390625,4152.9487304688,4163.7177734375,4165.1284179688,4178.0771484375,4161.7949218750,4177.5639648438,4155.3847656250,4142.5639648438,,,
0.2656250000,8,4174.7436523438,4166.5385742188,4166.4101562500,4170.8974609375,4176.5385742188,4170.6411132813,4154.7436523438,4166.6665039063,4169.6152343750,4172.0512695313,4167.0512695313,4186.5385742188,4166.5385742188,4144.1025390625,,,
0.2734375000,8,4183.7177734375,4164.1025390625,4165.3847656250,4171.5385742188,4159.4873046875,4159.4873046875,4156.0258789063,4162.3076171875,4170.0000000000,4161.9228515625,4169.8715820313,4195.6411132813,4174.4873046875,4151.7949218750,,,
0.2812500000,9,4187.6923828125,4172.3076171875,4172.1796875000,4179.2309570313,4165.5126953125,4168.0771484375,4154.8715820313,4169.4873046875,4176.6665039063,4170.6411132813,4175.2563476563,4204.8715820313,4178.9741210938,4153.4614257813,,,
0.2890625000,9,4195.7690429688,4182.4360351563,4183.0771484375,4185.0000000000,4187.0512695313,4181.9228515625,4163.9741210938,4172.5639648438,4176.9228515625,4170.3847656250,4177.1796875000,4211.6665039063,4182.5639648438,4157.8203125000,,,
0.2968750000,9,4197.3076171875,4183.7177734375,4188.4614257813,4186.4101562500,4194.4873046875,4184.8715820313,4164.2309570313,4169.3588867188,4175.3847656250,4172.6923828125,4179.8715820313,4212.5639648438,4185.8974609375,4158.9741210938,,,
0.3046875000,9,4201.7949218750,4185.2563476563,4191.2822265625,4186.7949218750,4186.1538085938,4180.2563476563,4167.6923828125,4173.2050781250,4179.1025390625,4183.2050781250,4190.3847656250,4222.3076171875,4188.7177734375,4160.7690429688,,,
0.3125000000,10,4191.5385742188,4184.8715820313,4189.3588867188,4187.4360351563,4177.5639648438,4173.5898437500,4170.0000000000,4181.5385742188,4182.4360351563,4185.7690429688,4192.6923828125,4221.4101562500,4186.2822265625,4152.3076171875,,,
0.3203125000,10,4188.7177734375,4170.6411132813,4177.9487304688,4179.8715820313,4168.3334960938,4163.4614257813,4166.1538085938,4173.9741210938,4173.7177734375,4177.6923828125,4174.2309570313,4210.2563476563,4170.1284179688,4136.7949218750,,,
0.3281250000,10,4187.4360351563,4166.4101562500,4177.3076171875,4176.4101562500,4173.0771484375,4167.4360351563,4160.3847656250,4172.8203125000,4172.4360351563,4178.8461914063,4174.8715820313,4216.1538085938,4169.6152343750,4134.3588867188,,,
0.3359375000,10,4187.4360351563,4174.4873046875,4185.7690429688,4184.3588867188,4179.1025390625,4180.5126953125,4171.5385742188,4183.8461914063,4179.7436523438,4175.8974609375,4190.2563476563,4229.7436523438,4182.3076171875,4141.5385742188,,,
0.3437500000,11,4187.6923828125,4179.8715820313,4187.4360351563,4186.5385742188,4175.5126953125,4182.8203125000,4176.5385742188,4180.3847656250,4172.8203125000,4158.9741210938,4181.2822265625,4226.4101562500,4176.9228515625,4138.0771484375,,,
0.3515625000,11,4187.0512695313,4178.3334960938,4181.6665039063,4177.5639648438,4181.0258789063,4178.8461914063,4173.2050781250,4175.0000000000,4166.5385742188,4159.7436523438,4168.2050781250,4220.7690429688,4166.9228515625,4128.4614257813,,,
0.3593750000,11,4184.6152343750,4176.4101562500,4180.0000000000,4178.8461914063,4196.5385742188,4185.2563476563,4173.7177734375,4181.4101562500,4174.3588867188,4179.3588867188,4179.4873046875,4222.5639648438,4175.0000000000,4128.7177734375,,,
0.3671875000,11,4179.1025390625,4177.0512695313,4178.4614257813,4185.8974609375,4198.4614257813,4193.4614257813,4173.3334960938,4181.7949218750,4175.3847656250,4179.3588867188,4194.3588867188,4225.6411132813,4185.7690429688,4129.7436523438,,,
0.3750000000,12,4177.3076171875,4176.6665039063,4170.7690429688,4180.8974609375,4187.0512695313,4188.7177734375,4174.6152343750,4177.3076171875,4173.4614257813,4170.1284179688,4194.1025390625,4223.8461914063,4185.8974609375,4133.4614257813,,,
0.3828125000,12,4174.4873046875,4173.9741210938,4169.2309570313,4176.6665039063,4185.1284179688,4179.1025390625,4171.1538085938,4178.8461914063,4180.2563476563,4183.9741210938,4187.6923828125,4213.0771484375,4182.3076171875,4126.4101562500,,,
0.3906250000,12,4178.8461914063,4170.6411132813,4169.7436523438,4177.3076171875,4185.2563476563,4175.6411132813,4168.9741210938,4181.6665039063,4181.2822265625,4192.4360351563,4182.9487304688,4209.6152343750,4178.7177734375,4127.3076171875,,,
0.3984375000,12,4176.7949218750,4172.8203125000,4167.5639648438,4177.5639648438,4187.4360351563,4183.0771484375,4170.7690429688,4188.8461914063,4181.4101562500,4182.6923828125,4184.3588867188,4209.8715820313,4182.9487304688,4132.0512695313,,,
0.4062500000,13,4186.6665039063,4179.8715820313,4173.0771484375,4182.8203125000,4190.8974609375,4189.3588867188,4179.6152343750,4183.8461914063,4181.2822265625,4177.5639648438,4189.4873046875,4211.2822265625,4188.2050781250,4138.0771484375,,,
0.4140625000,13,4184.8715820313,4188.9741210938,4182.3076171875,4189.1025390625,4187.9487304688,4185.5126953125,4179.6152343750,4180.1284179688,4185.2563476563,4192.6923828125,4197.8203125000,4212.4360351563,4192.0512695313,4143.2050781250,,,
0.4218750000,13,4187.4360351563,4189.6152343750,4177.5639648438,4187.5639648438,4184.6152343750,4185.3847656250,4186.7949218750,4195.0000000000,4193.7177734375,4202.4360351563,4199.1025390625,4211.2822265625,4190.8974609375,4147.8203125000,,,
0.4296875000,13,4191.7949218750,4194.7436523438,4179.7436523438,4192.9487304688,4198.5898437500,4201.6665039063,4190.2563476563,4210.8974609375,4199.3588867188,4196.5385742188,4204.2309570313,4212.1796875000,4193.8461914063,4144.3588867188,,,
0.4375000000,14,4196.0258789063,4194.3588867188,4186.7949218750,4195.5126953125,4205.6411132813,4208.4614257813,4197.4360351563,4212.8203125000,4204.8715820313,4204.4873046875,4207.1796875000,4222.1796875000,4197.3076171875,4150.3847656250,,,
0.4453125000,14,4191.5385742188,4182.4360351563,4185.7690429688,4187.5639648438,4193.5898437500,4199.1025390625,4194.2309570313,4215.0000000000,4212.4360351563,4218.8461914063,4200.1284179688,4221.2822265625,4193.7177734375,4152.8203125000,,,
0.4531250000,14,4186.7949218750,4174.7436523438,4175.0000000000,4176.4101562500,4182.1796875000,4188.7177734375,4188.4614257813,4209.1025390625,4197.4360351563,4194.1025390625,4187.8203125000,4206.0258789063,4184.1025390625,4142.0512695313,,,
0.4609375000,14,4178.5898437500,4179.1025390625,4167.9487304688,4173.3334960938,4185.0000000000,4190.1284179688,4188.0771484375,4204.7436523438,4183.8461914063,4174.6152343750,4182.4360351563,4193.4614257813,4180.3847656250,4141.4101562500,,,
0.4687500000,15,4182.0512695313,4185.5126953125,4173.8461914063,4177.5639648438,4189.1025390625,4191.6665039063,4186.6665039063,4205.7690429688,4193.0771484375,4193.7177734375,4183.3334960938,4193.4614257813,4178.3334960938,4147.4360351563,,,
0.4765625000,15,4185.8974609375,4185.5126953125,4180.1284179688,4174.8715820313,4182.5639648438,4184.6152343750,4180.1284179688,4197.9487304688,4191.2822265625,4193.7177734375,4184.6152343750,4192.5639648438,4175.6411132813,4150.6411132813,,,
0.4843750000,15,4177.8203125000,4179.4873046875,4174.4873046875,4172.0512695313,4174.7436523438,4180.0000000000,4178.5898437500,4188.4614257813,4178.0771484375,4176.6665039063,4182.4360351563,4181.5385742188,4175.0000000000,4147.9487304688,,,
0.4921875000,15,4176.6665039063,4170.5126953125,4166.6665039063,4173.7177734375,4181.4101562500,4181.6665039063,4179.8715820313,4182.3076171875,4173.3334960938,4179.8715820313,4174.8715820313,4171.2822265625,4170.3847656250,4142.4360351563,,,
0.5000000000,16,4175.8974609375,4168.5898437500,4167.0512695313,4167.9487304688,4190.1284179688,4185.1284179688,4180.0000000000,4187.0512695313,4178.2050781250,4188.7177734375,4171.2822265625,4170.5126953125,4169.7436523438,4136.6665039063,,,
0.5078125000,16,4183.5898437500,4179.4873046875,4172.0512695313,4166.2822265625,4190.0000000000,4189.3588867188,4188.9741210938,4200.3847656250,4188.2050781250,4196.0258789063,4175.3847656250,4173.3334960938,4177.9487304688,4148.7177734375,,,
0.5156250000,16,4188.3334960938,4193.8461914063,4180.3847656250,4178.9741210938,4190.1284179688,4192.3076171875,4185.0000000000,4208.2050781250,4202.0512695313,4211.0258789063,4190.6411132813,4175.2563476563,4191.0258789063,4156.1538085938,,,
0.5234375000,16,4189.3588867188,4193.7177734375,4177.0512695313,4178.7177734375,4183.7177734375,4187.4360351563,4182.6923828125,4201.4101562500,4204.7436523438,4216.6665039063,4197.1796875000,4176.1538085938,4194.4873046875,4160.1284179688,,,
0.5312500000,17,4184.2309570313,4188.7177734375,4175.5126953125,4173.9741210938,4186.0258789063,4191.7949218750,4183.5898437500,4199.3588867188,4204.8715820313,4217.5639648438,4193.2050781250,4170.5126953125,4193.0771484375,4158.0771484375,,,
0.5390625000,17,4193.5898437500,4184.6152343750,4179.4873046875,4177.5639648438,4189.7436523438,4197.3076171875,4188.4614257813,4205.5126953125,4208.5898437500,4220.3847656250,4195.3847656250,4172.1796875000,4196.2822265625,4162.9487304688,,,
0.5468750000,17,4187.8203125000,4177.6923828125,4178.5898437500,4176.5385742188,4181.4101562500,4190.1284179688,4185.3847656250,4212.8203125000,4210.3847656250,4219.4873046875,4201.5385742188,4176.5385742188,4201.2822265625,4169.6152343750,,,
0.5546875000,17,4188.0771484375,4173.8461914063,4175.2563476563,4172.9487304688,4178.0771484375,4183.2050781250,4184.1025390625,4210.6411132813,4206.2822265625,4208.9741210938,4196.1538085938,4174.7436523438,4194.7436523438,4171.6665039063,,,
0.5625000000,18,4188.9741210938,4179.6152343750,4178.8461914063,4177.4360351563,4189.7436523438,4192.0512695313,4182.1796875000,4206.9228515625,4208.4614257813,4213.4614257813,4196.2822265625,4170.7690429688,4192.1796875000,4169.6152343750,,,
0.5703125000,18,4189.3588867188,4179.1025390625,4176.9228515625,4176.1538085938,4188.0771484375,4201.2822265625,4190.5126953125,4213.3334960938,4215.1284179688,4226.0258789063,4199.2309570313,4172.5639648438,4196.0258789063,4171.9228515625,,,
0.5781250000,18,4186.7949218750,4177.9487304688,4174.4873046875,4175.1284179688,4175.3847656250,4199.8715820313,4188.9741210938,4210.0000000000,4210.6411132813,4216.4101562500,4195.5126953125,4172.8203125000,4191.2822265625,4171.2822265625,,,
0.5859375000,18,4184.4873046875,4178.2050781250,4178.7177734375,4176.4101562500,4181.2822265625,4199.3588867188,4183.2050781250,4194.7436523438,4199.3588867188,4197.9487304688,4195.6411132813,4171.2822265625,4185.3847656250,4167.4360351563,,,
0.5937500000,19,4185.0000000000,4180.2563476563,4181.7949218750,4176.6665039063,4195.2563476563,4202.3076171875,4182.4360351563,4194.7436523438,4199.2309570313,4198.8461914063,4194.4873046875,4168.3334960938,4185.0000000000,4166.2822265625,,,
0.6015625000,19,4187.3076171875,4190.1284179688,4182.1796875000,4178.8461914063,4188.8461914063,4194.1025390625,4176.4101562500,4192.4360351563,4197.6923828125,4198.7177734375,4186.6665039063,4162.1796875000,4179.7436523438,4159.6152343750,,,
0.6093750000,19,4183.5898437500,4194.7436523438,4178.9741210938,4181.6665039063,4179.8715820313,4187.1796875000,4173.4614257813,4178.8461914063,4188.8461914063,4190.7690429688,4186.1538085938,4157.4360351563,4176.9228515625,4165.0000000000,,,
0.6171875000,19,4181.1538085938,4190.7690429688,4181.4101562500,4185.7690429688,4194.4873046875,4197.8203125000,4176.9228515625,4183.4614257813,4192.9487304688,4208.4614257813,4198.0771484375,4162.1796875000,4190.1284179688,4174.6152343750,,,
0.6250000000,20,4196.0258789063,4193.0771484375,4191.2822265625,4186.1538085938,4207.5639648438,4203.0771484375,4181.7949218750,4197.4360351563,4206.1538085938,4230.3847656250,4207.8203125000,4171.4101562500,4207.3076171875,4183.8461914063,,,
0.6328125000,20,4194.4873046875,4198.7177734375,4191.2822265625,4183.8461914063,4201.5385742188,4196.7949218750,4180.1284179688,4194.7436523438,4210.3847656250,4229.7436523438,4206.6665039063,4167.1796875000,4206.0258789063,4180.6411132813,,,
0.6406250000,20,4190.6411132813,4196.0258789063,4181.7949218750,4183.7177734375,4193.9741210938,4194.8715820313,4179.1025390625,4180.8974609375,4197.1796875000,4214.3588867188,4197.8203125000,4160.1284179688,4188.5898437500,4173.5898437500,,,
0.6484375000,20,4185.0000000000,4191.6665039063,4178.7177734375,4183.2050781250,4190.2563476563,4190.2563476563,4174.3588867188,4177.3076171875,4185.5126953125,4201.4101562500,4194.8715820313,4156.0258789063,4183.9741210938,4166.6665039063,,,
0.6562500000,21,4188.8461914063,4185.2563476563,4180.0000000000,4180.1284179688,4183.9741210938,4182.0512695313,4180.2563476563,4178.0771484375,4185.8974609375,4196.4101562500,4196.0258789063,4156.7949218750,4188.9741210938,4173.0771484375,,,
0.6640625000,21,4188.5898437500,4187.1796875000,4187.0512695313,4190.0000000000,4186.5385742188,4186.6665039063,4176.6665039063,4178.4614257813,4188.2050781250,4196.7949218750,4193.9741210938,4157.4360351563,4187.4360351563,4173.4614257813,,,
0.6718750000,21,4192.3076171875,4189.6152343750,4188.7177734375,4194.4873046875,4190.6411132813,4189.6152343750,4176.1538085938,4176.7949218750,4181.0258789063,4187.4360351563,4182.0512695313,4155.5126953125,4177.3076171875,4170.5126953125,,,
0.6796875000,21,4194.2309570313,4188.2050781250,4196.9228515625,4199.1025390625,4191.2822265625,4183.8461914063,4178.0771484375,4179.6152343750,4181.1538085938,4183.8461914063,4192.5639648438,4158.0771484375,4181.4101562500,4174.2309570313,,,
0.6875000000,22,4205.0000000000,4193.3334960938,4224.1025390625,4220.8974609375,4186.1538085938,4180.5126953125,4181.6665039063,4181.5385742188,4186.5385742188,4198.3334960938,4233.7177734375,4186.0258789063,4199.2309570313,4188.7177734375,,,
0.6953125000,22,4209.1025390625,4208.0771484375,4253.4614257813,4239.2309570313,4190.5126953125,4192.6923828125,4184.4873046875,4188.4614257813,4194.7436523438,4215.8974609375,4267.6923828125,4216.2822265625,4215.7690429688,4207.0512695313,,,
0.7031250000,22,4221.1538085938,4219.7436523438,4268.8461914063,4243.5898437500,4204.6152343750,4201.9228515625,4192.5639648438,4194.3588867188,4198.7177734375,4215.0000000000,4276.1538085938,4231.0258789063,4220.2563476563,4214.7436523438,,,
0.7109375000,22,4236.9228515625,4226.9228515625,4289.7436523438,4258.7177734375,4211.0258789063,4198.4614257813,4193.3334960938,4191.0258789063,4196.5385742188,4211.2822265625,4291.6665039063,4249.7436523438,4229.8715820313,4223.5898437500,,,
0.7187500000,23,4238.9741210938,4229.3588867188,4305.2563476563,4272.0512695313,4210.6411132813,4197.0512695313,4191.6665039063,4197.1796875000,4202.6923828125,4221.6665039063,4310.0000000000,4267.1796875000,4245.0000000000,4234.8715820313,,,
0.7265625000,23,4236.1538085938,4224.7436523438,4298.2050781250,4264.2309570313,4212.8203125000,4196.9228515625,4192.9487304688,4211.6665039063,4213.5898437500,4229.2309570313,4306.9228515625,4266.2822265625,4241.7949218750,4239.3588867188,,,
0.7343750000,23,4229.3588867188,4216.0258789063,4281.4101562500,4246.5385742188,4207.1796875000,4185.2563476563,4192.3076171875,4210.7690429688,4209.7436523438,4220.2563476563,4293.5898437500,4251.5385742188,4230.6411132813,4228.2050781250,,,
0.7421875000,23,4228.0771484375,4201.1538085938,4263.3334960938,4229.6152343750,4198.0771484375,4182.0512695313,4195.0000000000,4196.4101562500,4197.9487304688,4213.8461914063,4275.3847656250,4233.8461914063,4222.3076171875,4216.2822265625,,,
0.7500000000,24,4224.4873046875,4197.6923828125,4253.4614257813,4221.1538085938,4192.8203125000,4190.7690429688,4191.7949218750,4189.8715820313,4197.4360351563,4220.2563476563,4263.3334960938,4222.0512695313,4217.5639648438,4202.5639648438,,,
0.7578125000,24,4220.0000000000,4200.7690429688,4244.1025390625,4210.2563476563,4185.8974609375,4186.2822265625,4197.3076171875,4194.6152343750,4198.4614257813,4216.6665039063,4260.3847656250,4218.5898437500,4215.2563476563,4205.1284179688,,,
0.7656250000,24,4213.5898437500,4199.4873046875,4234.3588867188,4202.6923828125,4196.2822265625,4188.4614257813,4201.0258789063,4202.4360351563,4201.4101562500,4215.2563476563,4259.4873046875,4212.8203125000,4219.7436523438,4207.8203125000,,,
0.7734375000,24,4223.5898437500,4197.3076171875,4229.4873046875,4199.3588867188,4209.2309570313,4198.8461914063,4200.1284179688,4199.2309570313,4200.6411132813,4217.0512695313,4253.5898437500,4210.5126953125,4220.6411132813,4206.9228515625,,,
0.7812500000,25,4215.3847656250,4198.3334960938,4225.0000000000,4193.4614257813,4208.5898437500,4196.4101562500,4194.3588867188,4195.7690429688,4198.8461914063,4218.5898437500,4248.3334960938,4205.6411132813,4218.2050781250,4204.2309570313,,,
0.7890625000,25,4210.3847656250,4194.1025390625,4211.9228515625,4185.6411132813,4203.0771484375,4185.8974609375,4199.2309570313,4193.3334960938,4196.5385742188,4215.7690429688,4243.5898437500,4199.8715820313,4213.8461914063,4202.6923828125,,,
0.7968750000,25,4204.6152343750,4190.7690429688,4204.2309570313,4182.5639648438,4200.2563476563,4184.1025390625,4196.5385742188,4193.9741210938,4195.0000000000,4212.8203125000,4241.4101562500,4192.9487304688,4209.6152343750,4195.7690429688,,,
0.8046875000,25,4204.1025390625,4187.5639648438,4202.6923828125,4178.7177734375,4197.1796875000,4187.0512695313,4195.2563476563,4195.0000000000,4194.2309570313,4214.4873046875,4233.9741210938,4184.6152343750,4201.5385742188,4191.9228515625,,,
0.8125000000,26,4206.6665039063,4191.2822265625,4202.1796875000,4181.0258789063,4206.2822265625,4192.4360351563,4194.3588867188,4197.4360351563,4196.7949218750,4212.0512695313,4232.4360351563,4179.8715820313,4201.0258789063,4189.7436523438,,,
0.8203125000,26,4208.4614257813,4196.2822265625,4199.2309570313,4184.7436523438,4207.6923828125,4189.6152343750,4196.2822265625,4202.5639648438,4201.5385742188,4199.7436523438,4236.1538085938,4185.8974609375,4206.7949218750,4190.1284179688,,,
0.8281250000,26,4204.1025390625,4190.1284179688,4197.6923828125,4180.5126953125,4190.3847656250,4184.2309570313,4194.8715820313,4205.3847656250,4202.8203125000,4191.6665039063,4232.6923828125,4187.5639648438,4207.1796875000,4194.3588867188,,,
0.8359375000,26,4205.7690429688,4186.1538085938,4201.0258789063,4181.5385742188,4188.8461914063,4187.3076171875,4193.3334960938,4198.4614257813,4197.9487304688,4187.3076171875,4234.2309570313,4186.2822265625,4208.8461914063,4195.7690429688,,,
0.8437500000,27,4203.9741210938,4187.6923828125,4198.8461914063,4184.8715820313,4200.8974609375,4188.3334960938,4196.9228515625,4194.4873046875,4195.1284179688,4183.3334960938,4235.2563476563,4183.0771484375,4212.5639648438,4196.6665039063,,,
0.8515625000,27,4194.2309570313,4185.3847656250,4189.6152343750,4178.8461914063,4202.1796875000,4188.2050781250,4197.0512695313,4202.9487304688,4203.7177734375,4196.9228515625,4227.0512695313,4171.6665039063,4204.2309570313,4188.7177734375,,,
0.8593750000,27,4199.1025390625,4186.7949218750,4188.3334960938,4173.4614257813,4200.7690429688,4193.5898437500,4198.2050781250,4210.7690429688,4213.4614257813,4215.7690429688,4231.0258789063,4171.5385742188,4203.4614257813,4189.7436523438,,,
0.8671875000,27,4202.4360351563,4189.4873046875,4195.3847656250,4176.1538085938,4209.8715820313,4195.3847656250,4200.3847656250,4218.5898437500,4221.5385742188,4219.8715820313,4245.5126953125,4183.2050781250,4222.9487304688,4198.5898437500,,,
0.8750000000,28,4205.2563476563,4184.6152343750,4193.7177734375,4178.2050781250,4210.1284179688,4187.4360351563,4198.7177734375,4212.3076171875,4216.2822265625,4215.7690429688,4237.8203125000,4184.4873046875,4221.2822265625,4202.4360351563,,,
0.8828125000,28,4195.1284179688,4181.1538085938,4186.0258789063,4170.3847656250,4195.3847656250,4179.1025390625,4186.9228515625,4198.5898437500,4200.2563476563,4208.3334960938,4222.8203125000,4172.6923828125,4204.3588867188,4190.5126953125,,,
0.8906250000,28,4195.0000000000,4178.0771484375,4178.5898437500,4160.3847656250,4184.1025390625,4174.8715820313,4186.6665039063,4193.8461914063,4193.5898437500,4198.5898437500,4220.2563476563,4170.0000000000,4203.9741210938,4191.4101562500,,,
0.8984375000,28,4202.9487304688,4178.8461914063,4186.6665039063,4165.5126953125,4183.5898437500,4171.2822265625,4182.5639648438,4198.2050781250,4203.2050781250,4206.1538085938,4227.5639648438,4177.4360351563,4213.2050781250,4197.3076171875,,,
0.9062500000,29,4211.4101562500,4181.5385742188,4196.7949218750,4166.7949218750,4185.5126953125,4168.8461914063,4187.8203125000,4206.0258789063,4211.9228515625,4216.4101562500,4229.6152343750,4182.0512695313,4214.6152343750,4202.3076171875,,,
0.9140625000,29,4202.6923828125,4178.5898437500,4190.5126953125,4161.4101562500,4195.5126953125,4180.1284179688,4188.8461914063,4213.0771484375,4214.7436523438,4212.6923828125,4223.4614257813,4176.0258789063,4216.0258789063,4195.6411132813,,,
0.9218750000,29,4198.2050781250,4175.1284179688,4176.9228515625,4161.6665039063,4196.9228515625,4180.8974609375,4185.5126953125,4207.5639648438,4205.6411132813,4197.6923828125,4216.0258789063,4174.2309570313,4211.5385742188,4187.0512695313,,,
0.9296875000,29,4190.8974609375,4178.7177734375,4176.5385742188,4161.0258789063,4188.5898437500,4168.7177734375,4185.1284179688,4205.8974609375,4203.2050781250,4197.3076171875,4211.2822265625,4170.7690429688,4201.2822265625,4187.9487304688,,,
0.9375000000,30,4192.5639648438,4171.4101562500,4178.2050781250,4152.3076171875,4189.1025390625,4170.2563476563,4192.0512695313,4205.0000000000,4205.0000000000,4199.3588867188,4200.7690429688,4162.9487304688,4192.6923828125,4185.2563476563,,,
0.9453125000,30,4192.3076171875,4160.5126953125,4170.5126953125,4148.4614257813,4192.8203125000,4176.4101562500,4190.5126953125,4191.4101562500,4193.7177734375,4183.2050781250,4194.8715820313,4160.5126953125,4189.4873046875,4177.3076171875,,,
0.9531250000,30,4185.3847656250,4158.3334960938,4162.5639648438,4148.5898437500,4191.9228515625,4171.0258789063,4192.4360351563,4188.4614257813,4185.8974609375,4178.2050781250,4195.0000000000,4163.3334960938,4187.9487304688,4174.8715820313,,,
0.9609375000,30,4184.3588867188,4161.9228515625,4162.4360351563,4149.4873046875,4196.0258789063,4176.4101562500,4196.7949218750,4192.6923828125,4186.6665039063,4185.5126953125,4192.3076171875,4162.0512695313,4183.5898437500,4177.4360351563,,,
0.9687500000,31,4185.1284179688,4162.1796875000,4161.2822265625,4150.2563476563,4186.4101562500,4179.7436523438,4189.4873046875,4180.3847656250,4177.1796875000,4174.1025390625,4188.0771484375,4158.8461914063,4178.4614257813,4171.7949218750,,,
0.9765625000,31,4189.7436523438,4160.6411132813,4159.2309570313,4148.8461914063,4172.5639648438,4167.5639648438,4186.2822265625,4176.2822265625,4175.7690429688,4166.4101562500,4188.0771484375,4161.0258789063,4178.5898437500,4174.8715820313,,,
0.9843750000,31,4192.9487304688,4167.6923828125,4164.4873046875,4154.2309570313,4186.2822265625,4167.6923828125,4186.5385742188,4186.6665039063,4190.6411132813,4181.1538085938,4196.9228515625,4164.7436523438,4188.9741210938,4178.9741210938,,,
0.9921875000,31,4196.2822265625,4171.7949218750,4166.1538085938,4153.8461914063,4197.8203125000,4178.3334960938,4190.8974609375,4191.4101562500,4194.2309570313,4188.0771484375,4201.5385742188,4165.0000000000,4196.2822265625,4184.7436523438,,,
1.0000000000,32,4192.3076171875,4167.9487304688,4165.8974609375,4148.3334960938,4195.0000000000,4184.2309570313,4192.8203125000,4200.3847656250,4195.6411132813,4197.1796875000,4200.5126953125,4161.6665039063,4195.6411132813,4182.0512695313,,,
1.0078125000,32,4193.2050781250,4161.5385742188,4165.3847656250,4148.3334960938,4194.4873046875,4179.8715820313,4196.4101562500,4201.0258789063,4200.2563476563,4210.1284179688,4200.6411132813,4161.0258789063,4192.8203125000,4181.4101562500,,,
1.0156250000,32,4183.2050781250,4160.0000000000,4162.9487304688,4151.1538085938,4194.8715820313,4172.5639648438,4192.0512695313,4192.1796875000,4201.0258789063,4212.0512695313,4203.3334960938,4157.6923828125,4197.5639648438,4179.8715820313,,,
1.0234375000,32,4187.9487304688,4157.4360351563,4160.7690429688,4145.3847656250,4188.5898437500,4170.3847656250,4190.2563476563,4189.2309570313,4194.8715820313,4203.9741210938,4199.2309570313,4162.0512695313,4197.3076171875,4177.8203125000,,,
1.0312500000,33,4185.8974609375,4159.3588867188,4163.0771484375,4140.0000000000,4182.0512695313,4169.6152343750,4187.1796875000,4187.3076171875,4190.8974609375,4199.3588867188,4197.8203125000,4166.6665039063,4192.5639648438,4171.1538085938,,,
1.0390625000,33,4181.2822265625,4159.8715820313,4159.4873046875,4138.9741210938,4169.3588867188,4162.9487304688,4190.2563476563,4175.6411132813,4188.4614257813,4196.9228515625,4191.7949218750,4157.3076171875,4188.9741210938,4168.9741210938,,,
1.0468750000,33,4182.4360351563,4164.4873046875,4161.1538085938,4146.4101562500,4170.6411132813,4165.2563476563,4183.7177734375,4176.0258789063,4186.2822265625,4194.7436523438,4188.0771484375,4150.8974609375,4191.2822265625,4165.3847656250,,,
1.0546875000,33,4189.3588867188,4167.5639648438,4165.2563476563,4152.1796875000,4185.8974609375,4169.8715820313,4183.9741210938,4179.6152343750,4181.6665039063,4195.6411132813,4194.4873046875,4163.0771484375,4194.8715820313,4164.8715820313,,,
1.0625000000,34,4183.8461914063,4157.1796875000,4156.9228515625,4142.9487304688,4190.0000000000,4167.0512695313,4186.6665039063,4172.0512695313,4180.5126953125,4204.4873046875,4192.5639648438,4164.4873046875,4188.8461914063,4165.6411132813,,,
1.0703125000,34,4178.4614257813,4148.2050781250,4145.7690429688,4126.7949218750,4183.4614257813,4171.2822265625,4183.4614257813,4168.7177734375,4179.7436523438,4202.3076171875,4176.2822265625,4150.0000000000,4177.8203125000,4157.0512695313,,,
1.0781250000,34,4174.2309570313,4152.3076171875,4146.6665039063,4131.6665039063,4181.1538085938,4176.4101562500,4181.2822265625,4171.4101562500,4177.5639648438,4187.8203125000,4168.8461914063,4141.2822265625,4175.7690429688,4155.5126953125,,,
1.0859375000,34,4170.2563476563,4158.2050781250,4150.6411132813,4150.5126953125,4179.6152343750,4166.0258789063,4183.2050781250,4166.6665039063,4175.2563476563,4183.4614257813,4167.5639648438,4141.2822265625,4170.2563476563,4153.3334960938,,,
1.0937500000,35,4172.9487304688,4160.1284179688,4148.7177734375,4152.5639648438,4175.2563476563,4157.6923828125,4181.6665039063,4165.5126953125,4170.7690429688,4183.8461914063,4164.2309570313,4143.8461914063,4162.0512695313,4148.9741210938,,,
1.1015625000,35,4168.0771484375,4162.1796875000,4148.9741210938,4148.0771484375,4174.8715820313,4166.2822265625,4178.4614257813,4173.5898437500,4172.0512695313,4179.2309570313,4167.4360351563,4145.0000000000,4165.7690429688,4146.5385742188,,,
1.1093750000,35,4171.5385742188,4160.6411132813,4157.1796875000,4153.8461914063,4172.5639648438,4170.8974609375,4181.1538085938,4172.8203125000,4173.7177734375,4176.4101562500,4168.5898437500,4146.5385742188,4169.8715820313,4149.7436523438,,,
1.1171875000,35,4172.4360351563,4159.2309570313,4162.0512695313,4155.7690429688,4171.0258789063,4165.5126953125,4180.6411132813,4173.8461914063,4172.1796875000,4177.3076171875,4168.3334960938,4147.9487304688,4174.1025390625,4144.3588867188,,,
1.1250000000,36,4179.7436523438,4159.8715820313,4154.7436523438,4151.4101562500,4179.2309570313,4169.1025390625,4187.6923828125,4175.6411132813,4170.8974609375,4179.1025390625,4165.3847656250,4149.8715820313,4176.7949218750,4146.7949218750,,,
1.1328125000,36,4179.6152343750,4165.0000000000,4153.9741210938,4155.5126953125,4190.0000000000,4176.9228515625,4181.2822265625,4167.3076171875,4169.8715820313,4182.9487304688,4159.3588867188,4147.4360351563,4171.9228515625,4146.7949218750,,,
1.1406250000,36,4179.1025390625,4163.8461914063,4158.2050781250,4152.1796875000,4182.3076171875,4166.2822265625,4176.5385742188,4165.5126953125,4169.2309570313,4181.6665039063,4156.9228515625,4146.1538085938,4169.2309570313,4150.1284179688,,,
1.1484375000,36,4178.2050781250,4159.3588867188,4160.6411132813,4152.8203125000,4174.6152343750,4156.5385742188,4176.5385742188,4176.4101562500,4174.6152343750,4184.1025390625,4167.0512695313,4151.0258789063,4178.3334960938,4153.5898437500,,,
1.1562500000,37,4189.1025390625,4165.6411132813,4162.9487304688,4162.5639648438,4177.1796875000,4160.6411132813,4179.7436523438,4170.1284179688,4170.6411132813,4182.4360351563,4174.8715820313,4162.5639648438,4179.1025390625,4156.7949218750,,,
1.1640625000,37,4182.9487304688,4175.6411132813,4166.0258789063,4160.1284179688,4178.8461914063,4166.9228515625,4176.1538085938,4164.2309570313,4168.3334960938,4183.0771484375,4175.5126953125,4161.4101562500,4177.1796875000,4156.5385742188,,,
1.1718750000,37,4178.5898437500,4167.8203125000,4161.5385742188,4147.8203125000,4177.6923828125,4166.1538085938,4179.7436523438,4167.4360351563,4166.9228515625,4180.5126953125,4171.2822265625,4154.1025390625,4176.4101562500,4152.9487304688,,,
1.1796875000,37,4176.5385742188,4159.2309570313,4159.1025390625,4147.3076171875,4170.0000000000,4166.1538085938,4180.2563476563,4165.6411132813,4158.2050781250,4165.5126953125,4165.6411132813,4151.4101562500,4170.2563476563,4148.2050781250,,,
1.1875000000,38,4174.8715820313,4161.5385742188,4159.8715820313,4151.9228515625,4156.1538085938,4164.3588867188,4178.3334960938,4165.5126953125,4159.6152343750,4166.7949218750,4160.2563476563,4150.8974609375,4162.8203125000,4147.0512695313,,,
1.1953125000,38,4177.3076171875,4164.8715820313,4163.5898437500,4156.0258789063,4162.5639648438,4165.1284179688,4173.9741210938,4167.3076171875,4168.7177734375,4190.7690429688,4163.4614257813,4151.7949218750,4166.5385742188,4148.3334960938,,,
1.2031250000,38,4180.8974609375,4165.3847656250,4173.2050781250,4161.5385742188,4179.7436523438,4165.7690429688,4173.2050781250,4165.6411132813,4167.8203125000,4199.3588867188,4175.8974609375,4159.3588867188,4179.7436523438,4149.4873046875,,,
1.2109375000,38,4185.1284179688,4166.1538085938,4180.6411132813,4166.1538085938,4181.4101562500,4162.6923828125,4176.7949218750,4167.8203125000,4168.5898437500,4192.6923828125,4182.5639648438,4166.2822265625,4185.3847656250,4159.3588867188,,,
1.2187500000,39,4183.4614257813,4167.4360351563,4178.2050781250,4164.8715820313,4176.0258789063,4160.0000000000,4167.6923828125,4164.1025390625,4169.2309570313,4187.8203125000,4176.4101562500,4163.9741210938,4181.1538085938,4155.8974609375,,,
1.2265625000,39,4180.5126953125,4168.8461914063,4170.5126953125,4158.9741210938,4173.8461914063,4160.6411132813,4163.7177734375,4154.8715820313,4161.9228515625,4178.2050781250,4167.3076171875,4160.7690429688,4178.4614257813,4152.8203125000,,,
1.2343750000,39,4178.8461914063,4175.0000000000,4176.0258789063,4166.0258789063,4179.1025390625,4166.4101562500,4165.8974609375,4160.8974609375,4166.9228515625,4185.2563476563,4168.3334960938,4162.1796875000,4181.7949218750,4157.0512695313,,,
1.2421875000,39,4189.1025390625,4179.6152343750,4183.8461914063,4174.8715820313,4180.7690429688,4164.8715820313,4168.3334960938,4165.1284179688,4171.6665039063,4197.6923828125,4172.4360351563,4169.4873046875,4184.3588867188,4164.8715820313,,,
1.2500000000,40,4179.3588867188,4174.2309570313,4172.4360351563,4161.7949218750,4175.5126953125,4161.9228515625,4164.7436523438,4168.4614257813,4170.7690429688,4196.0258789063,4161.4101562500,4163.5898437500,4182.0512695313,4157.9487304688,,,
1.2578125000,40,4176.4101562500,4161.5385742188,4155.5126953125,4148.3334960938,4176.5385742188,4163.4614257813,4165.6411132813,4169.1025390625,4170.1284179688,4188.2050781250,4145.1284179688,4152.1796875000,4170.2563476563,4152.1796875000,,,
1.2656250000,40,4173.8461914063,4160.3847656250,4164.7436523438,4153.7177734375,4182.9487304688,4163.0771484375,4159.1025390625,4160.8974609375,4166.6665039063,4185.6411132813,4165.7690429688,4158.5898437500,4176.9228515625,4156.2822265625,,,
1.2734375000,40,4176.1538085938,4160.8974609375,4176.7949218750,4148.2050781250,4177.9487304688,4160.0000000000,4161.9228515625,4155.1284179688,4160.5126953125,4187.3076171875,4190.3847656250,4173.0771484375,4189.1025390625,4161.9228515625,,,
1.2812500000,41,4178.0771484375,4163.5898437500,4179.2309570313,4143.9741210938,4177.4360351563,4168.0771484375,4162.4360351563,4161.2822265625,4166.2822265625,4196.9228515625,4194.2309570313,4176.0258789063,4185.0000000000,4158.5898437500,,,
1.2890625000,41,4182.3076171875,4166.4101562500,4178.3334960938,4151.6665039063,4177.1796875000,4171.0258789063,4163.9741210938,4164.8715820313,4169.8715820313,4194.6152343750,4195.8974609375,4177.0512695313,4183.8461914063,4160.2563476563,,,
1.2968750000,41,4178.4614257813,4164.7436523438,4177.6923828125,4153.3334960938,4174.7436523438,4163.2050781250,4163.4614257813,4169.6152343750,4169.2309570313,4188.3334960938,4197.1796875000,4173.8461914063,4191.7949218750,4161.6665039063,,,
1.3046875000,41,4180.6411132813,4161.6665039063,4175.6411132813,4147.1796875000,4175.2563476563,4160.1284179688,4163.9741210938,4174.6152343750,4171.5385742188,4200.6411132813,4192.0512695313,4170.1284179688,4190.0000000000,4158.2050781250,,,
1.3125000000,42,4179.2309570313,4163.2050781250,4173.5898437500,4149.2309570313,4180.6411132813,4165.1284179688,4166.1538085938,4178.4614257813,4176.2822265625,4214.4873046875,4192.3076171875,4171.7949218750,4190.0000000000,4164.8715820313,,,
1.3203125000,42,4180.0000000000,4166.7949218750,4175.0000000000,4156.2822265625,4188.3334960938,4169.8715820313,4168.7177734375,4183.8461914063,4182.1796875000,4209.1025390625,4196.7949218750,4176.4101562500,4199.2309570313,4170.7690429688,,,
1.3281250000,42,4184.2309570313,4165.3847656250,4173.0771484375,4153.9741210938,4181.2822265625,4167.4360351563,4166.9228515625,4182.1796875000,4181.1538085938,4200.7690429688,4198.3334960938,4175.8974609375,4201.9228515625,4169.1025390625,,,
1.3359375000,42,4176.1538085938,4158.0771484375,4165.6411132813,4144.2309570313,4164.8715820313,4164.6152343750,4169.8715820313,4179.3588867188,4179.1025390625,4208.4614257813,4195.6411132813,4168.5898437500,4197.8203125000,4162.0512695313,,,
1.3437500000,43,4178.4614257813,4160.7690429688,4161.6665039063,4136.7949218750,4168.8461914063,4171.0258789063,4177.0512695313,4180.7690429688,4178.2050781250,4209.8715820313,4185.7690429688,4162.6923828125,4195.0000000000,4160.5126953125,,,
1.3515625000,43,4180.7690429688,4173.2050781250,4163.2050781250,4137.9487304688,4184.1025390625,4172.4360351563,4169.1025390625,4181.7949218750,4177.0512695313,4198.7177734375,4187.0512695313,4159.3588867188,4201.1538085938,4157.8203125000,,,
1.3593750000,43,4184.4873046875,4171.5385742188,4160.6411132813,4140.6411132813,4180.6411132813,4167.5639648438,4168.9741210938,4183.7177734375,4178.5898437500,4202.6923828125,4193.8461914063,4157.8203125000,4203.5898437500,4164.6152343750,,,
1.3671875000,43,4182.1796875000,4166.4101562500,4161.5385742188,4143.9741210938,4175.7690429688,4173.0771484375,4168.0771484375,4190.0000000000,4183.4614257813,4211.5385742188,4188.3334960938,4154.8715820313,4197.4360351563,4159.7436523438,,,
1.3750000000,44,4181.7949218750,4161.7949218750,4158.2050781250,4138.0771484375,4174.4873046875,4169.2309570313,4168.8461914063,4191.0258789063,4184.2309570313,4201.4101562500,4179.1025390625,4153.2050781250,4195.1284179688,4151.5385742188,,,
1.3828125000,44,4175.0000000000,4155.6411132813,4151.7949218750,4130.7690429688,4173.2050781250,4163.5898437500,4166.7949218750,4191.7949218750,4189.4873046875,4207.8203125000,4178.8461914063,4147.0512695313,4200.1284179688,4142.5639648438,,,
1.3906250000,44,4180.6411132813,4160.1284179688,4153.3334960938,4133.5898437500,4165.5126953125,4168.3334960938,4171.7949218750,4185.5126953125,4190.3847656250,4219.4873046875,4179.4873046875,4146.7949218750,4199.1025390625,4139.4873046875,,,
1.3984375000,44,4176.0258789063,4170.0000000000,4156.2822265625,4139.7436523438,4162.5639648438,4172.6923828125,4171.6665039063,4181.0258789063,4185.1284179688,4202.8203125000,4178.9741210938,4147.9487304688,4197.9487304688,4139.7436523438,,,
1.4062500000,45,4177.5639648438,4163.7177734375,4150.7690429688,4135.7690429688,4177.1796875000,4174.1025390625,4172.4360351563,4184.6152343750,4181.9228515625,4190.3847656250,4173.4614257813,4142.5639648438,4191.7949218750,4141.9228515625,,,
1.4140625000,45,4180.2563476563,4161.0258789063,4151.6665039063,4128.9741210938,4188.4614257813,4178.7177734375,4171.5385742188,4190.0000000000,4183.7177734375,4202.0512695313,4170.3847656250,4137.1796875000,4183.8461914063,4140.7690429688,,,
1.4218750000,45,4173.5898437500,4158.3334960938,4144.4873046875,4120.8974609375,4170.8974609375,4173.9741210938,4175.5126953125,4186.5385742188,4179.4873046875,4193.9741210938,4159.2309570313,4131.0258789063,4172.4360351563,4130.5126953125,,,
1.4296875000,45,4166.0258789063,4146.1538085938,4129.4873046875,4117.1796875000,4156.7949218750,4168.2050781250,4170.0000000000,4180.8974609375,4175.0000000000,4176.4101562500,4148.0771484375,4122.3076171875,4165.0000000000,4121.5385742188,,,
1.4375000000,46,4168.5898437500,4143.0771484375,4130.6411132813,4123.2050781250,4159.7436523438,4167.1796875000,4163.9741210938,4179.2309570313,4175.7690429688,4182.0512695313,4155.5126953125,4126.4101562500,4171.2822265625,4124.8715820313,,,
1.4453125000,46,4169.6152343750,4152.9487304688,4140.1284179688,4130.5126953125,4163.9741210938,4166.6665039063,4169.1025390625,4179.2309570313,4177.1796875000,4188.3334960938,4157.6923828125,4127.4360351563,4170.8974609375,4129.2309570313,,,
1.4531250000,46,4162.3076171875,4159.7436523438,4141.6665039063,4134.6152343750,4162.1796875000,4165.1284179688,4166.6665039063,4180.2563476563,4172.8203125000,4177.1796875000,4148.3334960938,4118.5898437500,4160.6411132813,4117.0512695313,,,
1.4609375000,46,4161.6665039063,4160.8974609375,4140.6411132813,4135.5126953125,4158.7177734375,4165.2563476563,4162.3076171875,4180.7690429688,4169.4873046875,4172.5639648438,4151.4101562500,4122.5639648438,4167.1796875000,4120.7690429688,,,
1.4687500000,47,4164.4873046875,4164.2309570313,4146.6665039063,4139.7436523438,4170.5126953125,4174.6152343750,4164.1025390625,4176.6665039063,4175.0000000000,4184.7436523438,4163.5898437500,4130.5126953125,4176.6665039063,4128.9741210938,,,
1.4765625000,47,4168.3334960938,4161.4101562500,4146.0258789063,4140.6411132813,4177.3076171875,4178.8461914063,4167.1796875000,4165.0000000000,4171.1538085938,4185.5126953125,4164.4873046875,4125.8974609375,4167.8203125000,4125.7690429688,,,
1.4843750000,47,4152.0512695313,4150.8974609375,4132.6923828125,4128.5898437500,4163.3334960938,4167.3076171875,4160.3847656250,4162.9487304688,4161.6665039063,4177.1796875000,4154.6152343750,4114.2309570313,4160.5126953125,4113.9741210938,,,
1.4921875000,47,4150.0000000000,4143.2050781250,4121.2822265625,4117.4360351563,4148.3334960938,4159.1025390625,4159.6152343750,4160.7690429688,4155.5126953125,4167.5639648438,4140.2563476563,4111.6665039063,4155.1284179688,4112.9487304688,,,
1.5000000000,48,4154.2309570313,4150.0000000000,4128.8461914063,4125.1284179688,4149.3588867188,4165.5126953125,4155.7690429688,4160.0000000000,4160.0000000000,4170.7690429688,4146.2822265625,4118.0771484375,4158.3334960938,4115.8974609375,,,
1.5078125000,48,4157.6923828125,4152.4360351563,4135.5126953125,4129.8715820313,4151.0258789063,4167.4360351563,4160.3847656250,4166.1538085938,4165.2563476563,4176.6665039063,4157.4360351563,4124.7436523438,4167.1796875000,4122.1796875000,,,
1.5156250000,48,4148.5898437500,4148.2050781250,4128.2050781250,4119.3588867188,4150.0000000000,4160.5126953125,4155.5126953125,4159.8715820313,4160.3847656250,4168.4614257813,4149.3588867188,4115.3847656250,4160.5126953125,4112.8203125000,,,
1.5234375000,48,4148.8461914063,4143.4614257813,4117.9487304688,4108.9741210938,4141.6665039063,4150.5126953125,4149.8715820313,4143.4614257813,4153.9741210938,4164.8715820313,4137.6923828125,4109.1025390625,4147.1796875000,4107.4360351563,,,
1.5312500000,49,4150.8974609375,4139.2309570313,4121.2822265625,4114.1025390625,4134.1025390625,4148.3334960938,4147.8203125000,4151.0258789063,4162.9487304688,4183.3334960938,4139.8715820313,4111.7949218750,4152.0512695313,4116.2822265625,,,
1.5390625000,49,4150.1284179688,4139.1025390625,4127.8203125000,4117.8203125000,4136.6665039063,4149.4873046875,4147.4360351563,4161.6665039063,4166.9228515625,4179.4873046875,4140.2563476563,4109.6152343750,4154.1025390625,4117.1796875000,,,
1.5468750000,49,4144.1025390625,4143.3334960938,4127.1796875000,4115.8974609375,4140.6411132813,4147.5639648438,4146.9228515625,4158.5898437500,4162.1796875000,4159.6152343750,4142.3076171875,4108.7177734375,4154.7436523438,4117.5639648438,,,
1.5546875000,49,4151.5385742188,4144.2309570313,4128.8461914063,4117.5639648438,4142.5639648438,4147.4360351563,4151.5385742188,4157.6923828125,4162.3076171875,4168.3334960938,4146.1538085938,4117.4360351563,4161.7949218750,4124.3588867188,,,
1.5625000000,50,4154.8715820313,4144.6152343750,4133.8461914063,4120.0000000000,4144.8715820313,4148.8461914063,4149.2309570313,4158.2050781250,4158.2050781250,4170.7690429688,4143.7177734375,4115.7690429688,4158.0771484375,4126.1538085938,,,
1.5703125000,50,4144.6152343750,4138.7177734375,4127.9487304688,4114.8715820313,4141.2822265625,4146.9228515625,4147.3076171875,4157.0512695313,4152.5639648438,4148.9741210938,4139.4873046875,4107.3076171875,4149.4873046875,4120.7690429688,,,
1.5781250000,50,4150.6411132813,4132.0512695313,4123.7177734375,4113.2050781250,4138.9741210938,4147.9487304688,4152.1796875000,4149.6152343750,4148.9741210938,4143.8461914063,4139.3588867188,4109.1025390625,4148.3334960938,4123.8461914063,,,
1.5859375000,50,4152.5639648438,4136.5385742188,4129.8715820313,4118.9741210938,4142.4360351563,4148.9741210938,4146.1538085938,4135.6411132813,4140.6411132813,4154.4873046875,4138.8461914063,4108.3334960938,4148.7177734375,4119.3588867188,,,
1.5937500000,51,4148.0771484375,4140.2563476563,4124.2309570313,4120.1284179688,4137.8203125000,4143.0771484375,4144.2309570313,4127.8203125000,4135.2563476563,4150.0000000000,4127.8203125000,4101.0258789063,4138.0771484375,4112.6923828125,,,
1.6015625000,51,4142.8203125000,4142.4360351563,4117.1796875000,4123.5898437500,4129.7436523438,4138.2050781250,4145.2563476563,4131.5385742188,4140.2563476563,4143.4614257813,4121.7949218750,4099.1025390625,4132.9487304688,4106.5385742188,,,
1.6093750000,51,4146.1538085938,4139.7436523438,4120.6411132813,4126.7949218750,4136.6665039063,4139.4873046875,4151.4101562500,4133.5898437500,4144.1025390625,4150.5126953125,4128.7177734375,4105.5126953125,4142.5639648438,4114.7436523438,,,
1.6171875000,51,4145.2563476563,4140.8974609375,4127.6923828125,4132.9487304688,4160.2563476563,4154.7436523438,4154.2309570313,4141.1538085938,4148.9741210938,4160.3847656250,4137.6923828125,4106.5385742188,4151.9228515625,4119.8715820313,,,
1.6250000000,52,4160.5126953125,4155.7690429688,4133.2050781250,4140.2563476563,4169.2309570313,4162.4360351563,4160.5126953125,4149.2309570313,4153.0771484375,4157.8203125000,4140.1284179688,4109.6152343750,4151.9228515625,4122.3076171875,,,
1.6328125000,52,4159.8715820313,4163.4614257813,4136.4101562500,4140.5126953125,4162.6923828125,4153.5898437500,4156.7949218750,4152.6923828125,4158.7177734375,4163.3334960938,4143.7177734375,4112.5639648438,4157.4360351563,4122.9487304688,,,
1.6406250000,52,4156.7949218750,4148.7177734375,4131.0258789063,4136.0258789063,4158.9741210938,4151.6665039063,4156.6665039063,4149.4873046875,4155.8974609375,4172.6923828125,4139.6152343750,4112.9487304688,4156.1538085938,4121.2822265625,,,
1.6484375000,52,4155.2563476563,4146.4101562500,4130.3847656250,4138.7177734375,4157.8203125000,4155.5126953125,4154.7436523438,4145.0000000000,4143.9741210938,4165.2563476563,4136.9228515625,4110.5126953125,4148.3334960938,4119.2309570313,,,
1.6562500000,53,4159.3588867188,4149.1025390625,4133.0771484375,4139.2309570313,4148.7177734375,4144.8715820313,4157.0512695313,4144.4873046875,4141.5385742188,4156.6665039063,4137.6923828125,4107.3076171875,4149.8715820313,4125.6411132813,,,
1.6640625000,53,4167.6923828125,4145.8974609375,4140.7690429688,4141.7949218750,4152.5639648438,4143.7177734375,4156.1538085938,4151.1538085938,4153.8461914063,4163.5898437500,4140.6411132813,4113.9741210938,4159.8715820313,4132.1796875000,,,
1.6718750000,53,4174.7436523438,4157.3076171875,4149.1025390625,4147.1796875000,4166.1538085938,4156.6665039063,4158.2050781250,4161.5385742188,4160.1284179688,4160.5126953125,4147.4360351563,4129.4873046875,4165.1284179688,4136.6665039063,,,
1.6796875000,53,4173.3334960938,4171.0258789063,4148.7177734375,4146.1538085938,4170.2563476563,4161.0258789063,4163.4614257813,4168.4614257813,4159.4873046875,4151.9228515625,4149.4873046875,4131.0258789063,4164.2309570313,4143.0771484375,,,
1.6875000000,54,4175.6411132813,4165.8974609375,4149.7436523438,4145.6411132813,4170.2563476563,4161.1538085938,4164.8715820313,4166.2822265625,4160.7690429688,4164.4873046875,4145.0000000000,4126.4101562500,4159.8715820313,4139.6152343750,,,
1.6953125000,54,4181.9228515625,4160.2563476563,4154.6152343750,4150.2563476563,4164.6152343750,4163.3334960938,4168.0771484375,4163.2050781250,4162.6923828125,4175.0000000000,4142.3076171875,4130.0000000000,4157.3076171875,4141.5385742188,,,
1.7031250000,54,4174.8715820313,4162.3076171875,4150.7690429688,4147.8203125000,4156.9228515625,4155.5126953125,4166.7949218750,4160.7690429688,4159.7436523438,4165.5126953125,4144.1025390625,4128.2050781250,4156.9228515625,4140.3847656250,,,
1.7109375000,54,4172.1796875000,4159.7436523438,4148.8461914063,4142.9487304688,4159.1025390625,4146.5385742188,4164.3588867188,4152.5639648438,4151.1538085938,4157.0512695313,4145.1284179688,4129.8715820313,4156.6665039063,4141.2822265625,,,
1.7187500000,55,4167.8203125000,4153.5898437500,4154.1025390625,4145.7690429688,4160.6411132813,4150.7690429688,4159.3588867188,4154.7436523438,4154.6152343750,4162.9487304688,4147.5639648438,4131.6665039063,4162.8203125000,4142.8203125000,,,
1.7265625000,55,4169.4873046875,4151.7949218750,4146.6665039063,4146.7949218750,4153.3334960938,4152.9487304688,4158.8461914063,4157.4360351563,4158.9741210938,4166.1538085938,4145.3847656250,4120.6411132813,4160.8974609375,4138.7177734375,,,
1.7343750000,55,4162.1796875000,4158.7177734375,4142.1796875000,4147.6923828125,4157.3076171875,4149.4873046875,4157.8203125000,4155.0000000000,4159.1025390625,4176.2822265625,4146.6665039063,4115.3847656250,4159.1025390625,4128.9741210938,,,
1.7421875000,55,4167.3076171875,4156.7949218750,4146.4101562500,4148.0771484375,4166.9228515625,4154.6152343750,4165.6411132813,4158.9741210938,4165.0000000000,4191.1538085938,4148.0771484375,4128.4614257813,4165.3847656250,4138.3334960938,,,
1.7500000000,56,4169.2309570313,4155.6411132813,4148.3334960938,4146.5385742188,4164.7436523438,4162.5639648438,4162.6923828125,4165.1284179688,4169.7436523438,4185.7690429688,4146.0258789063,4128.3334960938,4168.2050781250,4140.5126953125,,,
1.7578125000,56,4166.6665039063,4155.2563476563,4141.2822265625,4135.8974609375,4148.7177734375,4151.7949218750,4164.4873046875,4162.9487304688,4161.2822265625,4170.7690429688,4143.7177734375,4122.0512695313,4162.0512695313,4136.1538085938,,,
1.7656250000,56,4161.2822265625,4147.1796875000,4138.8461914063,4131.7949218750,4152.1796875000,4149.3588867188,4168.8461914063,4168.7177734375,4162.9487304688,4175.5126953125,4147.3076171875,4122.1796875000,4162.0512695313,4139.8715820313,,,
1.7734375000,56,4170.0000000000,4147.9487304688,4146.1538085938,4141.1538085938,4168.2050781250,4160.6411132813,4171.2822265625,4173.2050781250,4168.3334960938,4173.5898437500,4150.2563476563,4126.4101562500,4166.0258789063,4145.6411132813,,,
1.7812500000,57,4165.1284179688,4157.8203125000,4151.9228515625,4148.4614257813,4164.7436523438,4159.2309570313,4169.3588867188,4172.8203125000,4163.4614257813,4163.2050781250,4150.0000000000,4124.8715820313,4166.1538085938,4145.3847656250,,,
1.7890625000,57,4160.2563476563,4152.0512695313,4146.0258789063,4146.9228515625,4153.9741210938,4149.3588867188,4169.6152343750,4170.7690429688,4160.7690429688,4168.3334960938,4144.1025390625,4120.3847656250,4157.8203125000,4140.1284179688,,,
1.7968750000,57,4167.1796875000,4145.3847656250,4141.6665039063,4144.6152343750,4162.3076171875,4150.5126953125,4163.8461914063,4164.7436523438,4163.3334960938,4179.8715820313,4143.5898437500,4120.5126953125,4154.4873046875,4139.6152343750,,,
1.8046875000,57,4166.9228515625,4152.0512695313,4142.9487304688,4144.1025390625,4166.6665039063,4154.8715820313,4169.4873046875,4162.4360351563,4163.3334960938,4177.4360351563,4141.5385742188,4121.6665039063,4157.6923828125,4141.5385742188,,,
1.8125000000,58,4165.8974609375,4155.7690429688,4147.4360351563,4148.7177734375,4162.3076171875,4157.5639648438,4178.4614257813,4161.4101562500,4156.1538085938,4164.1025390625,4138.4614257813,4123.9741210938,4155.3847656250,4143.8461914063,,,
1.8203125000,58,4169.1025390625,4158.8461914063,4154.6152343750,4156.1538085938,4167.6923828125,4160.7690429688,4170.6411132813,4158.8461914063,4151.7949218750,4158.8461914063,4153.5898437500,4135.8974609375,4161.4101562500,4145.6411132813,,,
1.8281250000,58,4175.0000000000,4160.6411132813,4159.8715820313,4159.4873046875,4167.1796875000,4156.0258789063,4167.4360351563,4158.7177734375,4156.6665039063,4163.3334960938,4166.5385742188,4145.5126953125,4173.9741210938,4156.6665039063,,,
1.8359375000,58,4172.6923828125,4162.9487304688,4170.3847656250,4170.8974609375,4163.2050781250,4153.3334960938,4167.3076171875,4161.4101562500,4162.3076171875,4166.5385742188,4165.7690429688,4145.3847656250,4173.5898437500,4155.3847656250,,,
1.8437500000,59,4177.1796875000,4171.9228515625,4184.6152343750,4185.5126953125,4163.9741210938,4155.3847656250,4169.3588867188,4158.8461914063,4159.1025390625,4163.5898437500,4173.0771484375,4157.3076171875,4170.5126953125,4157.1796875000,,,
1.8515625000,59,4181.6665039063,4185.6411132813,4207.8203125000,4204.2309570313,4165.2563476563,4157.4360351563,4163.2050781250,4160.8974609375,4162.4360351563,4171.4101562500,4200.1284179688,4183.0771484375,4184.6152343750,4168.9741210938,,,
1.8593750000,59,4193.9741210938,4192.4360351563,4240.5126953125,4230.8974609375,4161.5385742188,4153.3334960938,4163.2050781250,4158.2050781250,4161.9228515625,4176.2822265625,4224.8715820313,4210.7690429688,4200.7690429688,4188.9741210938,,,
1.8671875000,59,4194.1025390625,4197.1796875000,4272.6923828125,4256.0258789063,4160.2563476563,4148.9741210938,4164.1025390625,4156.1538085938,4161.4101562500,4181.2822265625,4247.1796875000,4233.3334960938,4215.1284179688,4202.9487304688,,,
1.8750000000,60,4200.2563476563,4199.6152343750,4287.4360351563,4265.6411132813,4160.0000000000,4143.5898437500,4164.7436523438,4152.8203125000,4161.0258789063,4185.8974609375,4256.2822265625,4251.0258789063,4216.2822265625,4204.3588867188,,,
1.8828125000,60,4197.8203125000,4205.5126953125,4295.0000000000,4270.7690429688,4157.6923828125,4136.6665039063,4157.3076171875,4143.2050781250,4152.5639648438,4180.2563476563,4254.4873046875,4258.3334960938,4207.1796875000,4198.5898437500,,,
1.8906250000,60,4200.2563476563,4212.8203125000,4307.6923828125,4279.2309570313,4157.0512695313,4139.6152343750,4163.5898437500,4143.8461914063,4146.9228515625,4171.1538085938,4261.7949218750,4265.3847656250,4212.1796875000,4208.2050781250,,,
1.8984375000,60,4208.4614257813,4220.5126953125,4325.2563476563,4291.0258789063,4161.4101562500,4153.0771484375,4168.8461914063,4159.7436523438,4160.2563476563,4180.6411132813,4275.6411132813,4274.6152343750,4228.9741210938,4219.1025390625,,,
1.9062500000,61,4210.5126953125,4216.2822265625,4326.5385742188,4291.6665039063,4156.4101562500,4150.3847656250,4169.1025390625,4167.9487304688,4170.7690429688,4197.8203125000,4275.1284179688,4276.6665039063,4228.3334960938,4215.6411132813,,,
1.9140625000,61,4197.6923828125,4201.4101562500,4304.8715820313,4276.0258789063,4151.2822265625,4141.6665039063,4168.8461914063,4163.5898437500,4165.1284179688,4194.4873046875,4256.4101562500,4260.3847656250,4211.6665039063,4203.9741210938,,,
1.9218750000,61,4196.7949218750,4202.4360351563,4292.1796875000,4263.8461914063,4161.1538085938,4147.4360351563,4171.0258789063,4160.8974609375,4158.9741210938,4176.7949218750,4239.8715820313,4247.0512695313,4203.9741210938,4193.2050781250,,,
1.9296875000,61,4203.7177734375,4212.0512695313,4286.2822265625,4261.7949218750,4173.5898437500,4160.2563476563,4180.7690429688,4171.1538085938,4170.0000000000,4183.4614257813,4233.5898437500,4240.1284179688,4211.1538085938,4196.1538085938,,,
1.9375000000,62,4196.7949218750,4203.5898437500,4263.4614257813,4255.0000000000,4173.0771484375,4163.5898437500,4185.3847656250,4174.3588867188,4176.9228515625,4199.2309570313,4221.7949218750,4217.4360351563,4205.8974609375,4192.0512695313,,,
1.9453125000,62,4194.1025390625,4193.3334960938,4240.2563476563,4237.8203125000,4168.3334960938,4156.5385742188,4179.6152343750,4158.8461914063,4159.7436523438,4179.8715820313,4203.8461914063,4197.8203125000,4187.4360351563,4183.7177734375,,,
1.9531250000,62,4188.7177734375,4192.4360351563,4228.8461914063,4221.5385742188,4167.3076171875,4153.2050781250,4176.7949218750,4158.2050781250,4153.8461914063,4164.6152343750,4192.3076171875,4190.8974609375,4184.4873046875,4177.3076171875,,,
1.9609375000,62,4190.0000000000,4183.4614257813,4215.2563476563,4213.9741210938,4163.5898437500,4155.7690429688,4181.1538085938,4167.6923828125,4166.1538085938,4178.4614257813,4182.6923828125,4180.1284179688,4183.9741210938,4177.3076171875,,,
1.9687500000,63,4185.2563476563,4176.7949218750,4208.4614257813,4209.2309570313,4159.2309570313,4153.4614257813,4172.5639648438,4162.6923828125,4166.1538085938,4188.5898437500,4176.6665039063,4166.5385742188,4175.8974609375,4170.8974609375,,,
1.9765625000,63,4187.1796875000,4181.4101562500,4207.6923828125,4200.3847656250,4164.1025390625,4151.7949218750,4174.3588867188,4159.2309570313,4161.5385742188,4188.3334960938,4176.5385742188,4168.9741210938,4173.0771484375,4174.6152343750,,,
1.9843750000,63,4183.9741210938,4184.2309570313,4204.1025390625,4196.0258789063,4175.8974609375,4162.0512695313,4173.0771484375,4166.9228515625,4166.6665039063,4184.8715820313,4179.8715820313,4171.5385742188,4181.4101562500,4175.0000000000,,,
1.9921875000,63,4180.8974609375,4177.6923828125,4190.3847656250,4186.0258789063,4167.8203125000,4162.9487304688,4172.1796875000,4162.9487304688,4162.5639648438,4174.7436523438,4177.6923828125,4162.3076171875,4187.6923828125,4174.7436523438,,,
2.0000000000,64,4172.8203125000,4176.1538085938,4183.5898437500,4181.6665039063,4167.1796875000,4163.9741210938,4172.8203125000,4163.3334960938,4163.8461914063,4180.2563476563,4175.8974609375,4150.8974609375,4187.6923828125,4176.4101562500,,,
2.0078125000,64,4176.0258789063,4174.1025390625,4182.3076171875,4184.8715820313,4171.5385742188,4163.4614257813,4175.7690429688,4166.1538085938,4170.3847656250,4184.8715820313,4168.4614257813,4148.5898437500,4175.8974609375,4173.7177734375,,,
2.0156250000,64,4169.3588867188,4164.1025390625,4173.5898437500,4174.3588867188,4149.4873046875,4145.2563476563,4169.8715820313,4161.7949218750,4166.5385742188,4173.2050781250,4159.6152343750,4143.3334960938,4167.4360351563,4163.3334960938,,,
2.0234375000,64,4167.6923828125,4155.3847656250,4167.8203125000,4162.5639648438,4138.2050781250,4137.1796875000,4169.3588867188,4159.6152343750,4163.9741210938,4172.6923828125,4158.3334960938,4138.5898437500,4170.3847656250,4158.7177734375,,,
2.0312500000,65,4174.3588867188,4165.3847656250,4176.0258789063,4171.2822265625,4167.1796875000,4154.6152343750,4168.2050781250,4161.2822265625,4168.0771484375,4173.7177734375,4165.5126953125,4140.1284179688,4176.0258789063,4166.7949218750,,,
2.0390625000,65,4177.1796875000,4176.7949218750,4176.5385742188,4177.9487304688,4178.8461914063,4160.0000000000,4169.3588867188,4167.1796875000,4171.1538085938,4163.0771484375,4163.3334960938,4139.7436523438,4180.2563476563,4169.8715820313,,,
2.0468750000,65,4178.2050781250,4178.2050781250,4170.5126953125,4175.7690429688,4166.2822265625,4154.7436523438,4168.5898437500,4176.9228515625,4176.5385742188,4169.4873046875,4152.3076171875,4137.0512695313,4177.9487304688,4163.4614257813,,,
2.0546875000,65,4176.0258789063,4171.6665039063,4169.2309570313,4171.2822265625,4162.4360351563,4156.0258789063,4166.4101562500,4172.8203125000,4174.8715820313,4177.0512695313,4147.0512695313,4132.5639648438,4167.0512695313,4155.1284179688,,,
2.0625000000,66,4173.4614257813,4156.5385742188,4162.4360351563,4159.8715820313,4153.4614257813,4154.3588867188,4171.6665039063,4159.2309570313,4163.0771484375,4167.1796875000,4143.2050781250,4123.3334960938,4157.3076171875,4155.2563476563,,,
2.0703125000,66,4170.6411132813,4155.0000000000,4157.9487304688,4156.0258789063,4154.2309570313,4157.0512695313,4171.2822265625,4166.5385742188,4165.6411132813,4166.6665039063,4145.7690429688,4123.2050781250,4160.3847656250,4148.7177734375,,,
2.0781250000,66,4172.0512695313,4164.2309570313,4157.0512695313,4159.4873046875,4172.5639648438,4166.2822265625,4177.0512695313,4181.4101562500,4177.6923828125,4172.1796875000,4151.7949218750,4131.9228515625,4166.9228515625,4151.1538085938,,,
2.0859375000,66,4166.9228515625,4168.2050781250,4152.3076171875,4159.4873046875,4181.4101562500,4168.7177734375,4179.1025390625,4183.4614257813,4182.5639648438,4176.4101562500,4147.9487304688,4121.1538085938,4165.8974609375,4152.3076171875,,,
2.0937500000,67,4171.0258789063,4168.7177734375,4151.0258789063,4156.1538085938,4174.1025390625,4162.5639648438,4175.7690429688,4176.7949218750,4177.3076171875,4178.5898437500,4139.3588867188,4108.3334960938,4162.0512695313,4150.8974609375,,,
2.1015625000,67,4161.5385742188,4166.2822265625,4152.0512695313,4153.8461914063,4169.3588867188,4157.5639648438,4168.9741210938,4173.8461914063,4173.2050781250,4174.2309570313,4141.6665039063,4110.2563476563,4165.2563476563,4146.6665039063,,,
2.1093750000,67,4160.2563476563,4155.7690429688,4142.5639648438,4149.2309570313,4169.2309570313,4155.0000000000,4173.2050781250,4168.4614257813,4167.4360351563,4159.3588867188,4137.3076171875,4113.8461914063,4159.1025390625,4147.6923828125,,,
2.1171875000,67,4159.3588867188,4159.1025390625,4142.0512695313,4147.8203125000,4170.3847656250,4157.4360351563,4169.2309570313,4167.3076171875,4168.8461914063,4161.9228515625,4133.2050781250,4111.9228515625,4152.9487304688,4143.4614257813,,,
2.1250000000,68,4158.2050781250,4163.4614257813,4142.6923828125,4144.1025390625,4163.8461914063,4157.3076171875,4168.9741210938,4167.4360351563,4172.0512695313,4170.3847656250,4133.0771484375,4111.4101562500,4155.5126953125,4140.2563476563,,,
2.1328125000,68,4153.9741210938,4158.7177734375,4140.8974609375,4146.0258789063,4165.3847656250,4155.2563476563,4165.0000000000,4162.5639648438,4166.2822265625,4164.6152343750,4130.6411132813,4108.7177734375,4155.1284179688,4138.9741210938,,,
2.1406250000,68,4159.2309570313,4163.7177734375,4146.4101562500,4152.9487304688,4177.1796875000,4155.6411132813,4162.9487304688,4157.9487304688,4159.6152343750,4158.5898437500,4131.0258789063,4111.4101562500,4152.1796875000,4142.3076171875,,,
2.1484375000,68,4159.1025390625,4170.7690429688,4153.3334960938,4155.7690429688,4180.7690429688,4161.6665039063,4166.7949218750,4156.5385742188,4159.2309570313,4159.3588867188,4134.1025390625,4116.0258789063,4155.1284179688,4147.4360351563,,,
2.1562500000,69,4160.3847656250,4159.2309570313,4148.4614257813,4152.8203125000,4174.7436523438,4157.4360351563,4169.1025390625,4147.9487304688,4152.3076171875,4154.2309570313,4130.5126953125,4117.5639648438,4152.8203125000,4144.8715820313,,,
2.1640625000,69,4161.5385742188,4151.0258789063,4141.7949218750,4146.4101562500,4168.7177734375,4142.8203125000,4165.2563476563,4139.6152343750,4145.3847656250,4153.9741210938,4125.7690429688,4113.9741210938,4149.7436523438,4143.9741210938,,,
2.1718750000,69,4159.6152343750,4159.7436523438,4144.7436523438,4145.0000000000,4164.8715820313,4141.0258789063,4163.3334960938,4140.3847656250,4148.3334960938,4165.1284179688,4124.8715820313,4110.5126953125,4154.1025390625,4142.6923828125,,,
2.1796875000,69,4167.6923828125,4167.0512695313,4147.0512695313,4150.6411132813,4163.4614257813,4151.5385742188,4164.4873046875,4148.8461914063,4152.9487304688,4167.5639648438,4130.1284179688,4119.2309570313,4161.7949218750,4150.8974609375,,,
2.1875000000,70,4172.3076171875,4163.9741210938,4149.4873046875,4156.4101562500,4167.8203125000,4162.9487304688,4169.4873046875,4168.2050781250,4162.3076171875,4166.7949218750,4142.1796875000,4130.1284179688,4170.3847656250,4160.0000000000,,,
2.1953125000,70,4178.3334960938,4162.3076171875,4157.3076171875,4161.2822265625,4176.6665039063,4172.6923828125,4178.8461914063,4177.3076171875,4171.1538085938,4175.1284179688,4147.9487304688,4131.5385742188,4172.6923828125,4163.8461914063,,,
2.2031250000,70,4171.9228515625,4166.7949218750,4157.5639648438,4161.4101562500,4181.5385742188,4170.7690429688,4174.8715820313,4171.5385742188,4173.0771484375,4185.1284179688,4151.0258789063,4129.2309570313,4174.3588867188,4157.8203125000,,,
2.2109375000,70,4170.5126953125,4165.5126953125,4146.0258789063,4153.3334960938,4175.8974609375,4162.5639648438,4179.7436523438,4176.4101562500,4176.9228515625,4190.1284179688,4151.6665039063,4131.4101562500,4178.7177734375,4163.2050781250,,,
2.2187500000,71,4172.3076171875,4167.6923828125,4154.3588867188,4159.7436523438,4185.7690429688,4173.7177734375,4183.4614257813,4189.7436523438,4184.6152343750,4195.6411132813,4154.6152343750,4132.5639648438,4183.3334960938,4167.4360351563,,,
2.2265625000,71,4176.2822265625,4164.6152343750,4163.3334960938,4163.7177734375,4190.6411132813,4177.3076171875,4182.0512695313,4181.6665039063,4176.6665039063,4188.3334960938,4156.5385742188,4132.3076171875,4178.2050781250,4167.4360351563,,,
2.2343750000,71,4164.4873046875,4155.3847656250,4148.3334960938,4152.5639648438,4165.2563476563,4163.0771484375,4172.1796875000,4169.3588867188,4167.1796875000,4176.0258789063,4147.0512695313,4124.3588867188,4167.3076171875,4155.8974609375,,,
2.2421875000,71,4165.0000000000,4153.7177734375,4137.1796875000,4148.9741210938,4150.5126953125,4156.7949218750,4173.3334960938,4167.0512695313,4166.2822265625,4171.0258789063,4138.3334960938,4119.4873046875,4157.6923828125,4148.9741210938,,,
2.2500000000,72,4161.4101562500,4157.1796875000,4138.3334960938,4151.2822265625,4169.1025390625,4159.6152343750,4171.5385742188,4167.1796875000,4167.3076171875,4181.2822265625,4145.5126953125,4117.4360351563,4161.2822265625,4149.3588867188,,,
2.2578125000,72,4158.8461914063,4153.7177734375,4137.0512695313,4149.1025390625,4179.7436523438,4161.9228515625,4168.8461914063,4165.3847656250,4166.7949218750,4190.1284179688,4145.5126953125,4116.6665039063,4164.8715820313,4149.1025390625,,,
2.2656250000,72,4161.0258789063,4157.0512695313,4145.3847656250,4155.8974609375,4175.1284179688,4168.8461914063,4168.9741210938,4168.2050781250,4169.3588867188,4180.7690429688,4142.6923828125,4121.6665039063,4163.8461914063,4151.0258789063,,,
2.2734375000,72,4163.2050781250,4161.0258789063,4149.3588867188,4159.2309570313,4172.4360351563,4170.7690429688,4175.0000000000,4168.7177734375,4170.8974609375,4171.5385742188,4145.1284179688,4122.6923828125,4162.8203125000,4152.1796875000,,,
2.2812500000,73,4163.0771484375,4159.8715820313,4146.7949218750,4154.1025390625,4181.5385742188,4171.7949218750,4176.1538085938,4170.8974609375,4169.8715820313,4176.7949218750,4144.7436523438,4118.2050781250,4159.7436523438,4149.7436523438,,,
2.2890625000,73,4163.3334960938,4159.6152343750,4147.4360351563,4151.0258789063,4175.2563476563,4170.8974609375,4174.6152343750,4173.9741210938,4165.3847656250,4178.0771484375,4142.6923828125,4124.4873046875,4160.7690429688,4149.1025390625,,,
2.2968750000,73,4164.8715820313,4150.2563476563,4141.0258789063,4144.2309570313,4150.8974609375,4159.4873046875,4177.5639648438,4171.7949218750,4159.4873046875,4172.4360351563,4137.0512695313,4128.5898437500,4160.2563476563,4154.2309570313,,,
2.3046875000,73,4162.3076171875,4142.6923828125,4135.6411132813,4141.0258789063,4157.5639648438,4159.2309570313,4174.7436523438,4166.0258789063,4157.0512695313,4174.3588867188,4130.0000000000,4122.3076171875,4148.2050781250,4146.7949218750,,,
2.3125000000,74,4163.9741210938,4150.2563476563,4140.5126953125,4145.2563476563,4180.1284179688,4171.9228515625,4176.1538085938,4166.2822265625,4159.2309570313,4173.4614257813,4133.9741210938,4126.5385742188,4144.8715820313,4151.7949218750,,,
2.3203125000,74,4159.8715820313,4155.2563476563,4144.4873046875,4146.6665039063,4171.6665039063,4174.6152343750,4179.8715820313,4173.8461914063,4167.6923828125,4174.4873046875,4138.7177734375,4128.7177734375,4156.0258789063,4157.6923828125,,,
2.3281250000,74,4168.4614257813,4155.5126953125,4146.4101562500,4148.4614257813,4156.1538085938,4168.3334960938,4182.3076171875,4176.0258789063,4171.7949218750,4179.7436523438,4139.7436523438,4128.7177734375,4162.9487304688,4160.5126953125,,,
2.3359375000,74,4168.2050781250,4162.1796875000,4150.7690429688,4153.4614257813,4167.8203125000,4169.6152343750,4178.8461914063,4185.1284179688,4176.1538085938,4188.2050781250,4154.8715820313,4138.4614257813,4172.6923828125,4164.6152343750,,,
2.3437500000,75,4164.7436523438,4152.6923828125,4142.4360351563,4147.4360351563,4166.1538085938,4167.4360351563,4181.1538085938,4185.8974609375,4173.2050781250,4192.3076171875,4153.0771484375,4139.6152343750,4173.3334960938,4160.2563476563,,,
2.3515625000,75,4153.2050781250,4139.8715820313,4136.7949218750,4143.5898437500,4148.0771484375,4158.4614257813,4174.1025390625,4168.7177734375,4162.8203125000,4191.0258789063,4136.4101562500,4122.1796875000,4161.6665039063,4142.3076171875,,,
2.3593750000,75,4158.5898437500,4150.0000000000,4142.5639648438,4151.9228515625,4152.3076171875,4160.6411132813,4173.3334960938,4157.6923828125,4156.7949218750,4189.2309570313,4137.5639648438,4121.4101562500,4158.3334960938,4146.4101562500,,,
2.3671875000,75,4164.4873046875,4167.6923828125,4150.8974609375,4161.5385742188,4177.0512695313,4177.0512695313,4170.8974609375,4163.3334960938,4162.8203125000,4191.5385742188,4149.4873046875,4130.2563476563,4166.9228515625,4154.4873046875,,,
2.3750000000,76,4159.3588867188,4162.5639648438,4147.4360351563,4154.4873046875,4177.9487304688,4174.6152343750,4174.3588867188,4161.2822265625,4161.7949218750,4180.6411132813,4145.8974609375,4124.7436523438,4164.8715820313,4149.1025390625,,,
2.3828125000,76,4146.6665039063,4146.6665039063,4134.8715820313,4143.0771484375,4159.8715820313,4160.1284179688,4176.5385742188,4155.3847656250,4153.3334960938,4165.0000000000,4133.9741210938,4112.6923828125,4151.6665039063,4141.9228515625,,,
2.3906250000,76,4147.3076171875,4140.7690429688,4129.1025390625,4141.9228515625,4153.7177734375,4155.5126953125,4174.6152343750,4154.2309570313,4148.8461914063,4161.9228515625,4126.0258789063,4113.0771484375,4139.1025390625,4132.9487304688,,,
2.3984375000,76,4146.6665039063,4144.6152343750,4134.7436523438,4147.3076171875,4161.1538085938,4160.1284179688,4176.5385742188,4154.1025390625,4151.6665039063,4167.8203125000,4129.1025390625,4116.2822265625,4142.0512695313,4132.1796875000,,,
2.4062500000,77,4146.9228515625,4150.6411132813,4137.9487304688,4152.5639648438,4166.4101562500,4170.0000000000,4186.7949218750,4164.6152343750,4161.5385742188,4179.2309570313,4134.8715820313,4112.5639648438,4148.5898437500,4138.5898437500,,,
2.4140625000,77,4154.7436523438,4157.5639648438,4137.9487304688,4155.3847656250,4164.4873046875,4179.3588867188,4190.5126953125,4178.0771484375,4169.8715820313,4182.6923828125,4135.3847656250,4113.7177734375,4146.7949218750,4139.4873046875,,,
2.4218750000,77,4154.7436523438,4162.5639648438,4140.6411132813,4154.4873046875,4163.9741210938,4180.0000000000,4191.1538085938,4183.2050781250,4173.2050781250,4175.8974609375,4139.1025390625,4122.9487304688,4152.3076171875,4134.8715820313,,,
2.4296875000,77,4163.0771484375,4165.8974609375,4147.0512695313,4157.4360351563,4179.3588867188,4188.9741210938,4199.3588867188,4183.2050781250,4175.2563476563,4182.4360351563,4144.3588867188,4127.9487304688,4156.2822265625,4146.0258789063,,,
2.4375000000,78,4165.8974609375,4169.4873046875,4154.3588867188,4166.9228515625,4196.0258789063,4200.7690429688,4198.5898437500,4182.4360351563,4175.5126953125,4190.0000000000,4149.1025390625,4130.2563476563,4152.8203125000,4152.0512695313,,,
2.4453125000,78,4163.7177734375,4165.2563476563,4151.6665039063,4167.4360351563,4187.3076171875,4193.3334960938,4201.0258789063,4179.3588867188,4172.3076171875,4180.8974609375,4149.1025390625,4135.3847656250,4151.9228515625,4152.4360351563,,,
2.4531250000,78,4163.5898437500,4167.1796875000,4155.3847656250,4167.3076171875,4179.4873046875,4190.6411132813,4201.5385742188,4180.5126953125,4173.0771484375,4182.4360351563,4151.2822265625,4134.1025390625,4157.5639648438,4146.4101562500,,,
2.4609375000,78,4172.1796875000,4175.0000000000,4159.1025390625,4168.0771484375,4185.5126953125,4195.2563476563,4205.7690429688,4179.4873046875,4174.8715820313,4186.9228515625,4153.0771484375,4132.1796875000,4159.1025390625,4148.8461914063,,,
2.4687500000,79,4164.7436523438,4176.1538085938,4157.1796875000,4170.8974609375,4192.6923828125,4195.1284179688,4205.8974609375,4178.5898437500,4179.7436523438,4190.6411132813,4155.2563476563,4133.4614257813,4163.0771484375,4152.5639648438,,,
2.4765625000,79,4167.9487304688,4171.5385742188,4155.6411132813,4172.0512695313,4184.7436523438,4186.9228515625,4204.2309570313,4170.3847656250,4173.8461914063,4188.4614257813,4149.6152343750,4132.5639648438,4160.2563476563,4149.7436523438,,,
2.4843750000,79,4167.0512695313,4171.6665039063,4158.5898437500,4170.8974609375,4175.2563476563,4180.7690429688,4199.6152343750,4167.3076171875,4166.6665039063,4181.5385742188,4145.5126953125,4127.1796875000,4155.8974609375,4145.1284179688,,,
2.4921875000,79,4172.3076171875,4167.6923828125,4162.1796875000,4174.1025390625,4187.0512695313,4184.8715820313,4210.3847656250,4175.8974609375,4168.3334960938,4176.5385742188,4150.1284179688,4137.3076171875,4159.4873046875,4155.7690429688,,,
2.5000000000,80,4176.6665039063,4170.1284179688,4167.6923828125,4182.6923828125,4201.0258789063,4190.1284179688,4212.9487304688,4178.8461914063,4167.9487304688,4172.6923828125,4154.6152343750,4148.4614257813,4161.0258789063,4162.5639648438,,,
2.5078125000,80,4170.7690429688,4176.6665039063,4165.7690429688,4178.2050781250,4185.6411132813,4177.5639648438,4208.7177734375,4170.0000000000,4160.0000000000,4167.4360351563,4142.9487304688,4137.1796875000,4150.0000000000,4152.5639648438,,,
2.5156250000,80,4164.6152343750,4174.7436523438,4157.8203125000,4169.2309570313,4171.2822265625,4169.2309570313,4208.0771484375,4172.5639648438,4160.1284179688,4172.9487304688,4131.1538085938,4125.0000000000,4141.4101562500,4146.2822265625,,,
2.5234375000,80,4173.3334960938,4172.0512695313,4157.5639648438,4172.4360351563,4183.7177734375,4179.7436523438,4213.9741210938,4182.9487304688,4167.4360351563,4181.6665039063,4139.8715820313,4136.9228515625,4150.3847656250,4152.0512695313,,,
2.5312500000,81,4181.5385742188,4173.5898437500,4163.4614257813,4177.4360351563,4200.3847656250,4188.2050781250,4221.2822265625,4183.2050781250,4175.3847656250,4185.6411132813,4149.2309570313,4148.0771484375,4159.8715820313,4161.4101562500,,,
2.5390625000,81,4177.3076171875,4170.8974609375,4168.2050781250,4174.3588867188,4193.2050781250,4184.2309570313,4218.2050781250,4180.8974609375,4180.3847656250,4190.7690429688,4147.3076171875,4143.9741210938,4156.7949218750,4157.6923828125,,,
2.5468750000,81,4174.1025390625,4161.5385742188,4163.8461914063,4165.7690429688,4171.9228515625,4172.0512695313,4215.3847656250,4180.3847656250,4173.2050781250,4181.2822265625,4146.0258789063,4142.1796875000,4151.0258789063,4158.8461914063,,,
2.5546875000,81,4168.0771484375,4160.7690429688,4154.8715820313,4160.2563476563,4179.4873046875,4169.1025390625,4214.4873046875,4176.9228515625,4167.6923828125,4173.8461914063,4147.1796875000,4138.8461914063,4148.4614257813,4157.3076171875,,,
2.5625000000,82,4172.6923828125,4168.0771484375,4151.1538085938,4160.1284179688,4195.2563476563,4173.2050781250,4217.0512695313,4168.8461914063,4162.5639648438,4176.7949218750,4143.0771484375,4134.4873046875,4146.1538085938,4155.5126953125,,,
2.5703125000,82,4168.8461914063,4168.8461914063,4151.0258789063,4163.9741210938,4187.1796875000,4170.0000000000,4214.8715820313,4169.6152343750,4159.4873046875,4176.9228515625,4142.1796875000,4135.0000000000,4151.4101562500,4154.6152343750,,,
2.5781250000,82,4174.4873046875,4160.7690429688,4149.2309570313,4166.0258789063,4178.3334960938,4165.6411132813,4215.8974609375,4168.3334960938,4162.9487304688,4180.8974609375,4143.4614257813,4139.8715820313,4157.8203125000,4160.3847656250,,,
2.5859375000,82,4173.2050781250,4161.5385742188,4150.6411132813,4165.3847656250,4184.3588867188,4168.8461914063,4209.4873046875,4161.5385742188,4166.0258789063,4187.9487304688,4149.7436523438,4142.1796875000,4162.0512695313,4157.0512695313,,,
2.5937500000,83,4174.2309570313,4162.8203125000,4151.2822265625,4163.8461914063,4178.9741210938,4167.1796875000,4215.3847656250,4164.1025390625,4167.3076171875,4184.2309570313,4157.5639648438,4145.6411132813,4163.8461914063,4159.2309570313,,,
2.6015625000,83,4172.0512695313,4161.9228515625,4154.8715820313,4167.8203125000,4173.9741210938,4166.4101562500,4218.2050781250,4173.8461914063,4170.2563476563,4179.7436523438,4156.4101562500,4142.9487304688,4161.6665039063,4158.2050781250,,,
2.6093750000,83,4179.8715820313,4158.4614257813,4150.7690429688,4158.9741210938,4174.1025390625,4166.0258789063,4222.5639648438,4173.0771484375,4163.9741210938,4172.8203125000,4141.5385742188,4139.8715820313,4155.6411132813,4157.4360351563,,,
2.6171875000,83,4175.5126953125,4157.9487304688,4150.7690429688,4153.0771484375,4172.4360351563,4167.1796875000,4224.1025390625,4182.6923828125,4169.4873046875,4173.7177734375,4142.1796875000,4140.0000000000,4162.9487304688,4164.7436523438,,,
2.6250000000,84,4180.7690429688,4164.3588867188,4161.5385742188,4167.3076171875,4177.9487304688,4170.2563476563,4226.1538085938,4190.1284179688,4181.1538085938,4181.7949218750,4152.5639648438,4146.0258789063,4166.2822265625,4164.1025390625,,,
2.6328125000,84,4189.2309570313,4173.3334960938,4164.1025390625,4181.6665039063,4188.2050781250,4169.2309570313,4226.4101562500,4177.4360351563,4177.3076171875,4182.0512695313,4151.5385742188,4148.5898437500,4158.7177734375,4158.4614257813,,,
2.6406250000,84,4182.5639648438,4171.2822265625,4153.8461914063,4181.4101562500,4191.1538085938,4169.3588867188,4230.8974609375,4173.7177734375,4175.8974609375,4179.8715820313,4145.1284179688,4140.2563476563,4156.4101562500,4155.5126953125,,,
2.6484375000,84,4174.4873046875,4164.1025390625,4149.2309570313,4176.4101562500,4187.4360351563,4170.8974609375,4231.1538085938,4180.1284179688,4180.8974609375,4178.3334960938,4145.2563476563,4127.5639648438,4155.7690429688,4153.7177734375,,,
2.6562500000,85,4171.9228515625,4160.2563476563,4145.7690429688,4168.5898437500,4176.0258789063,4161.7949218750,4227.9487304688,4178.7177734375,4177.1796875000,4172.9487304688,4140.2563476563,4119.8715820313,4150.2563476563,4149.1025390625,,,
2.6640625000,85,4166.7949218750,4163.4614257813,4145.5126953125,4164.8715820313,4175.6411132813,4161.2822265625,4222.8203125000,4181.7949218750,4181.6665039063,4185.2563476563,4136.0258789063,4120.3847656250,4150.8974609375,4151.1538085938,,,
2.6718750000,85,4166.9228515625,4165.6411132813,4147.1796875000,4167.9487304688,4182.0512695313,4169.3588867188,4225.6411132813,4186.0258789063,4188.8461914063,4196.6665039063,4138.3334960938,4127.9487304688,4152.4360351563,4145.2563476563,,,
2.6796875000,85,4202.0512695313,4151.5385742188,4131.2822265625,4158.4614257813,4171.5385742188,4165.7690429688,4257.4360351563,4173.4614257813,4170.5126953125,4172.8203125000,4124.6152343750,4133.0771484375,4137.6923828125,4172.4360351563,,,
2.6875000000,86,4118.8461914063,4170.6411132813,4154.1025390625,4181.0258789063,4195.5126953125,4185.5126953125,4194.4873046875,4202.8203125000,4195.2563476563,4194.3588867188,4148.5898437500,4108.9741210938,4163.7177734375,4132.0512695313,,,
2.6953125000,86,4186.9228515625,4158.4614257813,4145.5126953125,4173.7177734375,4177.5639648438,4170.1284179688,4255.6411132813,4186.7949218750,4183.9741210938,4189.3588867188,4138.4614257813,4126.4101562500,4151.5385742188,4132.3076171875,,,
2.7031250000,86,4311.1538085938,4124.7436523438,4098.9741210938,4136.2822265625,4129.4873046875,4137.9487304688,4356.9228515625,4132.5639648438,4132.3076171875,4141.7949218750,4094.3588867188,4151.2822265625,4106.6665039063,4241.2822265625,,,
2.7109375000,86,4191.7949218750,4146.1538085938,4113.5898437500,4152.8203125000,4149.1025390625,4153.7177734375,4265.3847656250,4158.4614257813,4153.4614257813,4157.6923828125,4109.3588867188,4115.1284179688,4125.8974609375,4206.1538085938,,,
2.7187500000,87,4070.3845214844,4175.0000000000,4150.2563476563,4182.0512695313,4188.7177734375,4177.1796875000,4172.1796875000,4199.8715820313,4193.9741210938,4196.7949218750,4139.1025390625,4086.2819824219,4158.8461914063,4097.1796875000,,,
2.7265625000,87,4137.6923828125,4160.2563476563,4134.4873046875,4164.7436523438,4178.0771484375,4167.5639648438,4229.8715820313,4180.3847656250,4180.7690429688,4187.3076171875,4123.3334960938,4100.6411132813,4144.2309570313,4100.8974609375,,,
2.7343750000,87,4194.3588867188,4150.2563476563,4120.8974609375,4151.9228515625,4168.5898437500,4168.7177734375,4271.2822265625,4165.1284179688,4165.5126953125,4173.3334960938,4112.9487304688,4112.9487304688,4135.7690429688,4166.5385742188,,,
2.7421875000,87,4124.1025390625,4171.5385742188,4149.1025390625,4176.2822265625,4190.0000000000,4186.9228515625,4214.7436523438,4192.5639648438,4191.2822265625,4197.8203125000,4144.2309570313,4104.7436523438,4163.7177734375,4129.6152343750,,,
2.7500000000,88,4167.1796875000,4156.5385742188,4135.5126953125,4162.5639648438,4164.3588867188,4170.3847656250,4252.5639648438,4176.4101562500,4178.3334960938,4188.7177734375,4132.3076171875,4115.0000000000,4146.9228515625,4136.7949218750,,,
2.7578125000,88,4156.5385742188,4153.9741210938,4128.3334960938,4154.3588867188,4154.4873046875,4166.7949218750,4242.3076171875,4170.8974609375,4174.1025390625,4189.4873046875,4127.4360351563,4105.7690429688,4142.3076171875,4143.7177734375,,,
2.7656250000,88,4152.9487304688,4158.9741210938,4134.1025390625,4159.2309570313,4161.9228515625,4163.4614257813,4235.7690429688,4170.7690429688,4174.8715820313,4187.5639648438,4131.0258789063,4106.1538085938,4147.0512695313,4135.1284179688,,,
2.7734375000,88,4168.9741210938,4156.5385742188,4136.1538085938,4165.0000000000,4157.6923828125,4158.9741210938,4243.2050781250,4158.4614257813,4166.1538085938,4177.6923828125,4131.9228515625,4114.2309570313,4144.1025390625,4147.5639648438,,,
2.7812500000,89,4159.3588867188,4151.1538085938,4136.2822265625,4165.2563476563,4149.4873046875,4159.4873046875,4238.0771484375,4158.4614257813,4163.7177734375,4176.6665039063,4131.9228515625,4111.7949218750,4142.1796875000,4140.3847656250,,,
2.7890625000,89,4162.3076171875,4150.1284179688,4137.1796875000,4155.7690429688,4159.1025390625,4164.7436523438,4244.8715820313,4169.7436523438,4169.4873046875,4175.3847656250,4123.9741210938,4110.3847656250,4143.5898437500,4142.6923828125,,,
2.7968750000,89,4165.2563476563,4157.5639648438,4142.1796875000,4156.0258789063,4178.8461914063,4175.7690429688,4249.1025390625,4177.5639648438,4178.9741210938,4178.8461914063,4126.6665039063,4112.0512695313,4148.7177734375,4146.2822265625,,,
2.8046875000,89,4167.6923828125,4160.2563476563,4145.1284179688,4169.1025390625,4174.7436523438,4179.6152343750,4255.3847656250,4170.5126953125,4173.5898437500,4178.0771484375,4135.6411132813,4121.0258789063,4146.0258789063,4147.5639648438,,,
2.8125000000,90,4162.4360351563,4164.1025390625,4147.5639648438,4175.5126953125,4166.5385742188,4178.5898437500,4251.5385742188,4164.8715820313,4168.8461914063,4176.6665039063,4144.4873046875,4128.7177734375,4146.5385742188,4147.6923828125,,,
2.8203125000,90,4167.4360351563,4172.9487304688,4155.0000000000,4173.9741210938,4175.3847656250,4177.5639648438,4249.3588867188,4165.6411132813,4177.6923828125,4185.5126953125,4154.6152343750,4130.8974609375,4156.9228515625,4153.9741210938,,,
2.8281250000,90,4171.1538085938,4176.2822265625,4159.6152343750,4174.6152343750,4177.3076171875,4178.0771484375,4250.0000000000,4168.2050781250,4182.5639648438,4196.0258789063,4161.1538085938,4131.4101562500,4164.4873046875,4157.4360351563,,,
2.8359375000,90,4167.1796875000,4167.5639648438,4152.9487304688,4167.1796875000,4162.4360351563,4173.9741210938,4249.7436523438,4169.7436523438,4177.3076171875,4192.5639648438,4158.0771484375,4132.4360351563,4159.7436523438,4152.5639648438,,,
2.8437500000,91,4166.7949218750,4159.3588867188,4152.3076171875,4162.0512695313,4161.1538085938,4170.7690429688,4244.1025390625,4167.3076171875,4178.3334960938,4187.8203125000,4158.4614257813,4136.4101562500,4161.5385742188,4150.5126953125,,,
2.8515625000,91,4169.3588867188,4166.0258789063,4156.1538085938,4169.7436523438,4162.1796875000,4166.6665039063,4241.9228515625,4160.1284179688,4179.3588867188,4188.8461914063,4164.3588867188,4138.4614257813,4166.6665039063,4153.7177734375,,,
2.8593750000,91,4166.4101562500,4176.5385742188,4157.6923828125,4177.6923828125,4151.7949218750,4164.3588867188,4236.0258789063,4154.7436523438,4174.2309570313,4192.3076171875,4168.4614257813,4137.0512695313,4164.7436523438,4153.3334960938,,,
2.8671875000,91,4171.2822265625,4176.0258789063,4160.7690429688,4178.9741210938,4157.1796875000,4170.8974609375,4226.9228515625,4161.9228515625,4177.3076171875,4195.3847656250,4175.0000000000,4144.3588867188,4168.9741210938,4155.7690429688,,,
2.8750000000,92,4176.6665039063,4177.3076171875,4167.0512695313,4178.7177734375,4179.7436523438,4181.7949218750,4229.2309570313,4182.4360351563,4192.3076171875,4197.9487304688,4182.4360351563,4152.0512695313,4176.0258789063,4160.2563476563,,,
2.8828125000,92,4174.8715820313,4179.7436523438,4163.7177734375,4175.2563476563,4183.4614257813,4184.3588867188,4243.2050781250,4185.0000000000,4191.6665039063,4197.6923828125,4176.4101562500,4142.4360351563,4168.3334960938,4158.4614257813,,,
2.8906250000,92,4169.8715820313,4173.5898437500,4157.6923828125,4171.4101562500,4171.5385742188,4175.1284179688,4240.8974609375,4164.6152343750,4177.5639648438,4193.7177734375,4167.3076171875,4131.9228515625,4157.1796875000,4153.2050781250,,,
2.8984375000,92,4167.8203125000,4163.5898437500,4156.4101562500,4166.7949218750,4165.5126953125,4167.5639648438,4229.8715820313,4162.6923828125,4176.4101562500,4184.6152343750,4162.8203125000,4132.1796875000,4156.2822265625,4150.6411132813,,,
2.9062500000,93,4166.9228515625,4159.7436523438,4153.3334960938,4162.4360351563,4163.7177734375,4171.1538085938,4236.6665039063,4179.4873046875,4177.8203125000,4169.4873046875,4156.9228515625,4132.6923828125,4155.6411132813,4152.6923828125,,,
2.9140625000,93,4169.3588867188,4161.5385742188,4154.2309570313,4167.8203125000,4163.4614257813,4178.3334960938,4241.0258789063,4173.8461914063,4170.8974609375,4162.4360351563,4156.4101562500,4132.9487304688,4160.3847656250,4152.9487304688,,,
2.9218750000,93,4173.5898437500,4166.9228515625,4158.8461914063,4175.7690429688,4163.3334960938,4172.3076171875,4231.5385742188,4159.3588867188,4172.3076171875,4177.0512695313,4166.7949218750,4138.0771484375,4170.2563476563,4156.5385742188,,,
2.9296875000,93,4174.2309570313,4173.9741210938,4160.5126953125,4173.8461914063,4170.5126953125,4171.7949218750,4230.0000000000,4168.8461914063,4183.7177734375,4191.5385742188,4170.2563476563,4138.4614257813,4169.7436523438,4157.9487304688,,,
2.9375000000,94,4173.2050781250,4170.1284179688,4153.5898437500,4157.3076171875,4177.3076171875,4187.4360351563,4240.7690429688,4177.6923828125,4181.9228515625,4180.7690429688,4152.6923828125,4132.0512695313,4160.2563476563,4153.7177734375,,,
2.9453125000,94,4172.8203125000,4168.4614257813,4153.8461914063,4155.8974609375,4167.9487304688,4187.4360351563,4240.1284179688,4171.7949218750,4177.4360351563,4166.9228515625,4149.4873046875,4133.7177734375,4160.3847656250,4151.2822265625,,,
2.9531250000,94,4182.0512695313,4183.0771484375,4170.3847656250,4184.2309570313,4163.9741210938,4175.0000000000,4234.3588867188,4175.8974609375,4186.2822265625,4173.0771484375,4165.7690429688,4145.2563476563,4167.1796875000,4158.7177734375,,,
2.9609375000,94,4184.6152343750,4193.0771484375,4187.4360351563,4204.4873046875,4177.6923828125,4178.2050781250,4231.6665039063,4183.8461914063,4191.9228515625,4178.5898437500,4171.2822265625,4153.7177734375,4167.1796875000,4160.5126953125,,,
2.9687500000,95,4180.0000000000,4182.9487304688,4191.2822265625,4195.1284179688,4176.1538085938,4182.6923828125,4231.2822265625,4174.3588867188,4182.4360351563,4167.9487304688,4167.1796875000,4155.1284179688,4162.5639648438,4153.3334960938,,,
2.9765625000,95,4179.2309570313,4176.1538085938,4187.1796875000,4186.0258789063,4161.5385742188,4174.4873046875,4228.9741210938,4171.5385742188,4173.7177734375,4157.1796875000,4169.7436523438,4153.4614257813,4164.4873046875,4153.4614257813,,,
2.9843750000,95,4182.6923828125,4176.6665039063,4183.7177734375,4184.3588867188,4161.4101562500,4172.4360351563,4230.8974609375,4178.4614257813,4175.5126953125,4154.3588867188,4166.4101562500,4151.4101562500,4165.8974609375,4157.3076171875,,,
2.9921875000,95,4175.3847656250,4174.7436523438,4177.3076171875,4180.5126953125,4170.1284179688,4181.2822265625,4234.6152343750,4170.5126953125,4175.6411132813,4160.7690429688,4153.8461914063,4147.4360351563,4157.6923828125,4153.9741210938,,,
3.0000000000,96,4171.7949218750,4172.5639648438,4169.3588867188,4177.3076171875,4167.5639648438,4177.8203125000,4238.2050781250,4157.8203125000,4166.7949218750,4164.6152343750,4148.7177734375,4145.7690429688,4146.4101562500,4147.9487304688,,,
3.0078125000,96,4171.6665039063,4170.5126953125,4164.8715820313,4174.3588867188,4158.4614257813,4163.8461914063,4234.7436523438,4159.8715820313,4163.0771484375,4156.5385742188,4148.4614257813,4142.5639648438,4145.3847656250,4146.2822265625,,,
3.0156250000,96,4168.0771484375,4169.3588867188,4163.3334960938,4171.5385742188,4154.2309570313,4161.7949218750,4230.7690429688,4162.6923828125,4166.1538085938,4149.4873046875,4145.2563476563,4135.8974609375,4147.5639648438,4142.3076171875,,,
3.0234375000,96,4169.4873046875,4174.6152343750,4162.3076171875,4173.4614257813,4163.4614257813,4175.1284179688,4237.9487304688,4164.4873046875,4172.6923828125,4158.0771484375,4147.6923828125,4132.9487304688,4146.9228515625,4143.7177734375,,,
3.0312500000,97,4173.9741210938,4176.1538085938,4162.5639648438,4177.1796875000,4165.2563476563,4180.8974609375,4244.7436523438,4171.5385742188,4174.7436523438,4166.6665039063,4152.6923828125,4137.4360351563,4147.0512695313,4151.6665039063,,,
3.0390625000,97,4171.4101562500,4167.5639648438,4162.9487304688,4173.9741210938,4150.1284179688,4173.8461914063,4243.5898437500,4164.4873046875,4159.3588867188,4150.0000000000,4142.9487304688,4137.1796875000,4138.3334960938,4150.3847656250,,,
3.0468750000,97,4164.2309570313,4162.9487304688,4161.2822265625,4168.3334960938,4156.2822265625,4171.6665039063,4237.9487304688,4153.8461914063,4147.5639648438,4138.4614257813,4131.0258789063,4126.1538085938,4129.6152343750,4143.4614257813,,,
3.0546875000,97,4167.8203125000,4169.4873046875,4164.1025390625,4171.4101562500,4181.7949218750,4175.3847656250,4242.3076171875,4157.9487304688,4157.4360351563,4152.6923828125,4137.4360351563,4127.1796875000,4136.4101562500,4149.8715820313,,,
3.0625000000,98,4169.4873046875,4177.5639648438,4168.4614257813,4178.9741210938,4185.0000000000,4179.8715820313,4243.9741210938,4161.1538085938,4165.0000000000,4160.0000000000,4146.9228515625,4135.1284179688,4146.0258789063,4155.1284179688,,,
3.0703125000,98,4169.7436523438,4174.6152343750,4163.4614257813,4175.6411132813,4171.4101562500,4176.5385742188,4239.3588867188,4157.8203125000,4159.7436523438,4151.6665039063,4141.1538085938,4133.0771484375,4142.0512695313,4151.6665039063,,,
3.0781250000,98,4172.5639648438,4175.0000000000,4163.2050781250,4174.8715820313,4169.4873046875,4166.1538085938,4233.7177734375,4160.8974609375,4163.4614257813,4160.6411132813,4139.8715820313,4132.1796875000,4142.4360351563,4151.6665039063,,,
3.0859375000,98,4178.3334960938,4181.2822265625,4173.3334960938,4185.6411132813,4168.3334960938,4165.0000000000,4233.3334960938,4162.1796875000,4171.0258789063,4173.2050781250,4147.4360351563,4139.7436523438,4150.3847656250,4158.7177734375,,,
3.0937500000,99,4176.9228515625,4180.8974609375,4179.3588867188,4188.8461914063,4167.8203125000,4173.2050781250,4228.4614257813,4157.3076171875,4171.7949218750,4165.6411132813,4150.7690429688,4138.0771484375,4154.1025390625,4160.5126953125,,,
3.1015625000,99,4175.5126953125,4181.5385742188,4174.2309570313,4184.2309570313,4177.4360351563,4173.2050781250,4224.6152343750,4156.7949218750,4169.6152343750,4162.1796875000,4151.5385742188,4137.1796875000,4154.8715820313,4160.7690429688,,,
3.1093750000,99,4174.8715820313,4185.1284179688,4171.0258789063,4182.9487304688,4181.2822265625,4166.0258789063,4227.4360351563,4161.4101562500,4170.7690429688,4174.2309570313,4153.9741210938,4144.2309570313,4154.1025390625,4163.4614257813,,,
3.1171875000,99,4175.5126953125,4183.8461914063,4174.1025390625,4181.0258789063,4175.5126953125,4168.5898437500,4229.2309570313,4163.2050781250,4172.8203125000,4174.2309570313,4152.3076171875,4144.4873046875,4151.4101562500,4165.3847656250,,,
3.1250000000,100,4179.6152343750,4182.0512695313,4179.2309570313,4181.4101562500,4175.1284179688,4173.2050781250,4222.5639648438,4164.6152343750,4168.0771484375,4160.5126953125,4153.2050781250,4140.1284179688,4153.8461914063,4164.4873046875,,,
3.1328125000,100,4181.2822265625,4183.0771484375,4178.0771484375,4186.2822265625,4179.8715820313,4166.9228515625,4222.5639648438,4165.3847656250,4164.4873046875,4161.5385742188,4160.7690429688,4145.8974609375,4158.8461914063,4163.0771484375,,,
3.1406250000,100,4178.4614257813,4178.5898437500,4169.6152343750,4182.6923828125,4176.7949218750,4163.2050781250,4225.8974609375,4158.8461914063,4162.3076171875,4167.1796875000,4157.4360351563,4146.7949218750,4155.0000000000,4163.5898437500,,,
3.1484375000,100,4174.3588867188,4167.9487304688,4162.8203125000,4171.6665039063,4162.9487304688,4161.5385742188,4218.7177734375,4150.3847656250,4151.1538085938,4153.2050781250,4143.4614257813,4133.2050781250,4143.7177734375,4155.1284179688,,,
3.1562500000,101,4171.5385742188,4162.3076171875,4160.8974609375,4170.8974609375,4157.6923828125,4158.2050781250,4214.3588867188,4151.9228515625,4143.3334960938,4141.6665039063,4140.2563476563,4129.3588867188,4138.4614257813,4148.9741210938,,,
3.1640625000,101,4167.4360351563,4169.3588867188,4162.1796875000,4179.4873046875,4170.5126953125,4161.4101562500,4218.2050781250,4158.0771484375,4152.1796875000,4154.2309570313,4146.0258789063,4134.3588867188,4141.0258789063,4148.5898437500,,,
3.1718750000,101,4166.2822265625,4174.7436523438,4159.7436523438,4178.3334960938,4180.8974609375,4165.5126953125,4221.1538085938,4160.0000000000,4159.4873046875,4163.9741210938,4145.2563476563,4132.8203125000,4141.7949218750,4147.5639648438,,,
3.1796875000,101,4163.2050781250,4165.7690429688,4153.8461914063,4169.8715820313,4178.0771484375,4164.6152343750,4215.7690429688,4170.0000000000,4165.0000000000,4162.0512695313,4144.6152343750,4127.4360351563,4143.9741210938,4144.8715820313,,,
3.1875000000,102,4161.4101562500,4155.8974609375,4148.2050781250,4167.4360351563,4165.8974609375,4163.3334960938,4212.1796875000,4164.2309570313,4163.5898437500,4162.4360351563,4148.8461914063,4130.0000000000,4148.4614257813,4147.0512695313,,,
3.1953125000,102,4158.2050781250,4161.2822265625,4150.0000000000,4173.3334960938,4162.6923828125,4166.4101562500,4207.4360351563,4142.5639648438,4151.9228515625,4159.6152343750,4149.6152343750,4132.4360351563,4151.2822265625,4149.2309570313,,,
3.2031250000,102,4161.2822265625,4168.8461914063,4151.5385742188,4174.8715820313,4170.0000000000,4169.6152343750,4206.6665039063,4146.2822265625,4152.3076171875,4155.7690429688,4145.1284179688,4132.0512695313,4149.8715820313,4148.7177734375,,,
3.2109375000,102,4165.0000000000,4168.0771484375,4152.0512695313,4172.8203125000,4178.9741210938,4173.8461914063,4205.3847656250,4161.7949218750,4163.4614257813,4170.2563476563,4153.2050781250,4135.8974609375,4153.4614257813,4151.0258789063,,,
3.2187500000,103,4162.0512695313,4159.4873046875,4151.2822265625,4167.5639648438,4174.8715820313,4168.9741210938,4204.4873046875,4152.6923828125,4157.6923828125,4181.0258789063,4164.6152343750,4136.9228515625,4156.9228515625,4152.0512695313,,,
3.2265625000,103,4154.8715820313,4152.9487304688,4147.0512695313,4159.6152343750,4165.0000000000,4163.3334960938,4204.7436523438,4142.6923828125,4149.8715820313,4168.5898437500,4157.3076171875,4130.3847656250,4151.1538085938,4147.9487304688,,,
3.2343750000,103,4156.2822265625,4156.4101562500,4144.8715820313,4157.0512695313,4162.1796875000,4169.1025390625,4206.0258789063,4150.7690429688,4156.7949218750,4162.0512695313,4143.7177734375,4130.3847656250,4143.5898437500,4144.8715820313,,,
3.2421875000,103,4159.4873046875,4163.3334960938,4146.2822265625,4160.2563476563,4163.5898437500,4175.0000000000,4208.4614257813,4160.6411132813,4165.5126953125,4177.4360351563,4150.2563476563,4136.1538085938,4143.3334960938,4147.3076171875,,,
3.2500000000,104,4157.3076171875,4164.6152343750,4148.0771484375,4160.3847656250,4167.6923828125,4173.0771484375,4207.1796875000,4162.8203125000,4165.7690429688,4182.8203125000,4161.4101562500,4139.3588867188,4148.0771484375,4146.6665039063,,,
3.2578125000,104,4154.4873046875,4163.4614257813,4146.9228515625,4160.1284179688,4160.1284179688,4167.8203125000,4204.2309570313,4153.7177734375,4157.1796875000,4171.1538085938,4154.4873046875,4138.4614257813,4148.4614257813,4144.4873046875,,,
3.2656250000,104,4154.7436523438,4166.0258789063,4147.1796875000,4162.9487304688,4151.7949218750,4171.2822265625,4204.1025390625,4143.8461914063,4153.2050781250,4170.7690429688,4145.3847656250,4136.0258789063,4143.7177734375,4144.1025390625,,,
3.2734375000,104,4161.9228515625,4168.7177734375,4150.5126953125,4164.7436523438,4162.8203125000,4178.2050781250,4207.4360351563,4146.2822265625,4159.6152343750,4182.0512695313,4147.4360351563,4134.4873046875,4141.1538085938,4147.1796875000,,,
3.2812500000,105,4159.6152343750,4161.6665039063,4149.2309570313,4160.1284179688,4175.5126953125,4172.4360351563,4206.1538085938,4148.8461914063,4158.4614257813,4177.1796875000,4147.9487304688,4132.9487304688,4139.3588867188,4144.7436523438,,,
3.2890625000,105,4153.4614257813,4155.5126953125,4147.5639648438,4156.9228515625,4172.8203125000,4170.8974609375,4203.4614257813,4141.1538085938,4146.2822265625,4157.9487304688,4142.0512695313,4133.5898437500,4132.9487304688,4140.8974609375,,,
3.2968750000,105,4153.2050781250,4166.0258789063,4156.4101562500,4163.8461914063,4173.9741210938,4184.8715820313,4199.6152343750,4137.4360351563,4150.6411132813,4161.1538085938,4149.8715820313,4137.9487304688,4135.1284179688,4141.5385742188,,,
3.3046875000,105,4157.3076171875,4170.2563476563,4156.6665039063,4165.1284179688,4180.0000000000,4186.6665039063,4198.9741210938,4148.8461914063,4166.7949218750,4174.6152343750,4162.6923828125,4142.1796875000,4146.2822265625,4147.0512695313,,,
3.3125000000,106,4152.5639648438,4158.5898437500,4145.1284179688,4158.0771484375,4176.9228515625,4174.6152343750,4194.3588867188,4162.1796875000,4168.7177734375,4166.1538085938,4162.6923828125,4134.4873046875,4149.2309570313,4143.9741210938,,,
3.3203125000,106,4153.7177734375,4154.8715820313,4149.3588867188,4158.5898437500,4175.0000000000,4172.1796875000,4189.3588867188,4159.7436523438,4161.6665039063,4154.7436523438,4161.2822265625,4132.3076171875,4146.6665039063,4139.4873046875,,,
3.3281250000,106,4158.8461914063,4163.0771484375,4163.3334960938,4165.7690429688,4182.8203125000,4174.3588867188,4188.2050781250,4157.4360351563,4166.2822265625,4170.6411132813,4172.3076171875,4142.5639648438,4154.8715820313,4143.5898437500,,,
3.3359375000,106,4157.1796875000,4156.7949218750,4157.4360351563,4162.6923828125,4177.9487304688,4168.5898437500,4188.2050781250,4163.4614257813,4170.5126953125,4180.8974609375,4175.8974609375,4144.3588867188,4158.0771484375,4140.5126953125,,,
3.3437500000,107,4148.8461914063,4144.2309570313,4145.1284179688,4156.6665039063,4165.6411132813,4160.1284179688,4180.5126953125,4165.1284179688,4162.1796875000,4162.4360351563,4165.8974609375,4136.1538085938,4149.2309570313,4130.6411132813,,,
3.3515625000,107,4145.6411132813,4148.2050781250,4148.7177734375,4161.0258789063,4172.0512695313,4154.8715820313,4176.0258789063,4162.3076171875,4155.2563476563,4152.1796875000,4162.8203125000,4135.5126953125,4143.3334960938,4125.3847656250,,,
3.3593750000,107,4151.4101562500,4159.8715820313,4157.4360351563,4166.4101562500,4186.4101562500,4159.8715820313,4178.3334960938,4164.3588867188,4158.8461914063,4165.2563476563,4165.3847656250,4140.6411132813,4143.4614257813,4126.5385742188,,,
3.3671875000,107,4153.0771484375,4162.3076171875,4155.0000000000,4163.2050781250,4183.9741210938,4166.0258789063,4180.3847656250,4171.5385742188,4160.5126953125,4165.3847656250,4164.3588867188,4139.1025390625,4146.0258789063,4126.0258789063,,,
3.3750000000,108,4149.3588867188,4154.7436523438,4148.7177734375,4157.5639648438,4175.2563476563,4160.5126953125,4180.8974609375,4172.8203125000,4155.5126953125,4149.7436523438,4162.6923828125,4139.2309570313,4141.4101562500,4123.5898437500,,,
3.3828125000,108,4151.7949218750,4159.1025390625,4153.0771484375,4162.5639648438,4178.5898437500,4157.4360351563,4179.1025390625,4165.0000000000,4151.2822265625,4152.1796875000,4164.1025390625,4143.3334960938,4131.4101562500,4121.6665039063,,,
3.3906250000,108,4161.9228515625,4171.4101562500,4161.5385742188,4173.2050781250,4182.0512695313,4161.2822265625,4177.9487304688,4162.0512695313,4148.2050781250,4162.4360351563,4161.6665039063,4148.4614257813,4130.5126953125,4125.6411132813,,,
3.3984375000,108,4165.7690429688,4171.9228515625,4166.5385742188,4181.7949218750,4183.3334960938,4160.8974609375,4175.1284179688,4172.0512695313,4151.0258789063,4160.7690429688,4161.1538085938,4154.1025390625,4139.3588867188,4127.0512695313,,,
3.4062500000,109,4172.9487304688,4173.3334960938,4174.7436523438,4186.7949218750,4190.6411132813,4163.2050781250,4181.6665039063,4178.0771484375,4156.9228515625,4157.5639648438,4170.6411132813,4161.9228515625,4145.6411132813,4135.7690429688,,,
3.4140625000,109,4181.6665039063,4191.6665039063,4184.8715820313,4196.2822265625,4204.8715820313,4176.0258789063,4190.6411132813,4177.9487304688,4163.2050781250,4161.9228515625,4181.6665039063,4165.7690429688,4154.7436523438,4151.4101562500,,,
3.4218750000,109,4184.8715820313,4202.0512695313,4185.3847656250,4203.5898437500,4216.0258789063,4183.8461914063,4193.2050781250,4182.9487304688,4164.7436523438,4165.1284179688,4181.4101562500,4168.9741210938,4160.8974609375,4154.8715820313,,,
3.4296875000,109,4179.7436523438,4192.0512695313,4180.8974609375,4198.4614257813,4204.2309570313,4177.9487304688,4189.6152343750,4183.2050781250,4163.7177734375,4163.5898437500,4174.3588867188,4173.4614257813,4153.4614257813,4144.6152343750,,,
3.4375000000,110,4180.6411132813,4186.6665039063,4183.9741210938,4195.5126953125,4181.4101562500,4165.6411132813,4191.5385742188,4172.4360351563,4162.3076171875,4162.1796875000,4172.4360351563,4175.6411132813,4149.6152343750,4144.1025390625,,,
3.4453125000,110,4183.2050781250,4191.2822265625,4196.6665039063,4205.8974609375,4183.2050781250,4161.9228515625,4188.5898437500,4167.3076171875,4162.3076171875,4171.4101562500,4178.7177734375,4178.3334960938,4160.0000000000,4154.4873046875,,,
3.4531250000,110,4185.2563476563,4191.9228515625,4202.8203125000,4215.7690429688,4191.6665039063,4170.7690429688,4186.9228515625,4168.8461914063,4159.6152343750,4181.7949218750,4182.5639648438,4186.6665039063,4162.9487304688,4159.3588867188,,,
3.4609375000,110,4186.9228515625,4196.1538085938,4209.4873046875,4224.8715820313,4187.6923828125,4178.9741210938,4193.4614257813,4161.9228515625,4149.1025390625,4174.7436523438,4182.6923828125,4196.6665039063,4157.8203125000,4160.6411132813,,,
3.4687500000,111,4195.0000000000,4206.0258789063,4237.5639648438,4249.8715820313,4188.9741210938,4173.4614257813,4197.9487304688,4149.4873046875,4141.4101562500,4161.5385742188,4188.8461914063,4209.6152343750,4163.4614257813,4169.6152343750,,,
3.4765625000,111,4206.6665039063,4216.6665039063,4273.0771484375,4284.1025390625,4200.2563476563,4166.1538085938,4192.1796875000,4153.3334960938,4150.3847656250,4165.7690429688,4205.8974609375,4231.1538085938,4177.6923828125,4187.4360351563,,,
3.4843750000,111,4212.4360351563,4222.9487304688,4287.1796875000,4298.0771484375,4197.1796875000,4166.9228515625,4185.7690429688,4159.2309570313,4156.5385742188,4170.8974609375,4218.2050781250,4248.2050781250,4182.9487304688,4192.3076171875,,,
3.4921875000,111,4210.6411132813,4228.5898437500,4289.1025390625,4299.8715820313,4186.9228515625,4167.5639648438,4184.4873046875,4149.1025390625,4149.1025390625,4163.4614257813,4220.3847656250,4254.8715820313,4182.3076171875,4192.0512695313,,,
3.5000000000,112,4210.3847656250,4234.6152343750,4307.5639648438,4313.2050781250,4186.6665039063,4165.7690429688,4186.7949218750,4146.0258789063,4149.4873046875,4160.5126953125,4220.1284179688,4259.6152343750,4187.1796875000,4198.5898437500,,,
3.5078125000,112,4222.0512695313,4240.6411132813,4339.3588867188,4331.4101562500,4183.8461914063,4165.7690429688,4192.1796875000,4160.0000000000,4159.8715820313,4169.4873046875,4226.4101562500,4274.1025390625,4193.8461914063,4208.7177734375,,,
3.5156250000,112,4227.9487304688,4247.3076171875,4361.4101562500,4338.0771484375,4177.6923828125,4165.8974609375,4193.8461914063,4163.2050781250,4163.0771484375,4178.3334960938,4234.2309570313,4287.3076171875,4196.7949218750,4211.2822265625,,,
3.5234375000,112,4224.8715820313,4246.4101562500,4362.5639648438,4340.0000000000,4179.1025390625,4163.9741210938,4191.1538085938,4148.9741210938,4156.9228515625,4176.0258789063,4234.3588867188,4289.3588867188,4198.0771484375,4212.6923828125,,,
3.5312500000,113,4226.2822265625,4247.1796875000,4364.7436523438,4346.1538085938,4192.1796875000,4166.2822265625,4187.6923828125,4148.5898437500,4156.9228515625,4172.5639648438,4237.0512695313,4290.5126953125,4200.8974609375,4216.9228515625,,,
3.5390625000,113,4235.2563476563,4254.6152343750,4373.0771484375,4344.2309570313,4202.4360351563,4172.9487304688,4193.4614257813,4160.3847656250,4163.0771484375,4171.7949218750,4240.2563476563,4296.2822265625,4201.1538085938,4219.6152343750,,,
3.5468750000,113,4226.9228515625,4251.7949218750,4363.0771484375,4331.2822265625,4196.1538085938,4177.1796875000,4195.8974609375,4160.8974609375,4160.8974609375,4167.0512695313,4231.1538085938,4285.1284179688,4194.7436523438,4211.6665039063,,,
3.5546875000,113,4212.6923828125,4228.0771484375,4336.1538085938,4312.3076171875,4183.0771484375,4169.1025390625,4191.4101562500,4149.6152343750,4152.6923828125,4163.9741210938,4214.1025390625,4262.4360351563,4184.1025390625,4200.6411132813,,,
3.5625000000,114,4209.6152343750,4214.7436523438,4319.7436523438,4296.9228515625,4181.5385742188,4161.0258789063,4190.6411132813,4155.2563476563,4163.8461914063,4176.6665039063,4206.6665039063,4251.9228515625,4180.2563476563,4196.1538085938,,,
3.5703125000,114,4211.5385742188,4224.4873046875,4314.1025390625,4286.1538085938,4180.1284179688,4165.6411132813,4200.3847656250,4170.2563476563,4177.0512695313,4183.8461914063,4206.0258789063,4248.0771484375,4180.8974609375,4195.2563476563,,,
3.5781250000,114,4206.9228515625,4225.0000000000,4301.9228515625,4274.1025390625,4176.7949218750,4170.7690429688,4201.4101562500,4170.3847656250,4171.7949218750,4176.6665039063,4205.7690429688,4240.6411132813,4182.1796875000,4193.8461914063,,,
3.5859375000,114,4207.5639648438,4211.2822265625,4290.0000000000,4265.1284179688,4190.3847656250,4171.9228515625,4195.8974609375,4170.8974609375,4171.6665039063,4178.9741210938,4204.3588867188,4239.6152343750,4186.1538085938,4192.5639648438,,,
3.5937500000,115,4209.7436523438,4207.8203125000,4287.0512695313,4262.1796875000,4204.7436523438,4174.4873046875,4195.0000000000,4180.7690429688,4180.8974609375,4182.3076171875,4199.6152343750,4238.9741210938,4188.3334960938,4195.5126953125,,,
3.6015625000,115,4200.8974609375,4206.2822265625,4275.6411132813,4252.0512695313,4196.0258789063,4169.3588867188,4201.7949218750,4179.4873046875,4175.7690429688,4176.1538085938,4194.7436523438,4228.2050781250,4181.2822265625,4189.4873046875,,,
3.6093750000,115,4195.0000000000,4195.6411132813,4260.8974609375,4239.6152343750,4189.2309570313,4169.1025390625,4207.9487304688,4171.0258789063,4168.4614257813,4177.4360351563,4190.7690429688,4219.2309570313,4173.9741210938,4181.2822265625,,,
3.6171875000,115,4196.2822265625,4186.2822265625,4255.2563476563,4234.4873046875,4191.5385742188,4174.4873046875,4202.6923828125,4176.0258789063,4168.7177734375,4175.0000000000,4190.7690429688,4218.2050781250,4177.4360351563,4182.5639648438,,,
3.6250000000,116,4194.3588867188,4182.1796875000,4250.2563476563,4228.2050781250,4181.9228515625,4165.1284179688,4194.2309570313,4180.6411132813,4166.4101562500,4165.2563476563,4189.6152343750,4215.8974609375,4179.6152343750,4186.2822265625,,,
3.6328125000,116,4195.2563476563,4186.1538085938,4247.1796875000,4223.5898437500,4180.1284179688,4162.9487304688,4192.0512695313,4177.5639648438,4169.8715820313,4177.1796875000,4187.5639648438,4211.0258789063,4176.7949218750,4183.3334960938,,,
3.6406250000,116,4203.4614257813,4194.8715820313,4247.1796875000,4222.0512695313,4187.4360351563,4176.5385742188,4197.6923828125,4179.3588867188,4176.4101562500,4192.5639648438,4189.4873046875,4211.4101562500,4177.3076171875,4188.5898437500,,,
3.6484375000,116,4198.4614257813,4192.5639648438,4237.8203125000,4216.5385742188,4182.8203125000,4173.4614257813,4198.5898437500,4185.1284179688,4177.1796875000,4183.7177734375,4189.8715820313,4211.5385742188,4180.8974609375,4194.1025390625,,,
3.6562500000,117,4192.5639648438,4181.4101562500,4225.3847656250,4208.0771484375,4175.0000000000,4162.0512695313,4195.3847656250,4178.4614257813,4172.9487304688,4175.1284179688,4181.5385742188,4206.4101562500,4179.8715820313,4188.4614257813,,,
3.6640625000,117,4188.2050781250,4173.4614257813,4222.4360351563,4199.7436523438,4175.1284179688,4168.2050781250,4187.6923828125,4165.0000000000,4165.7690429688,4182.3076171875,4171.9228515625,4196.6665039063,4173.4614257813,4178.5898437500,,,
3.6718750000,117,4181.6665039063,4164.1025390625,4211.9228515625,4190.1284179688,4173.3334960938,4168.3334960938,4183.9741210938,4162.9487304688,4160.3847656250,4179.8715820313,4163.9741210938,4189.8715820313,4164.6152343750,4173.9741210938,,,
3.6796875000,117,4179.1025390625,4165.0000000000,4204.1025390625,4188.0771484375,4171.2822265625,4164.4873046875,4187.5639648438,4168.5898437500,4165.8974609375,4168.2050781250,4162.3076171875,4190.2563476563,4164.4873046875,4176.6665039063,,,
3.6875000000,118,4185.7690429688,4171.9228515625,4204.4873046875,4191.2822265625,4169.2309570313,4166.4101562500,4193.7177734375,4164.1025390625,4172.0512695313,4168.0771484375,4164.6152343750,4189.8715820313,4170.7690429688,4182.5639648438,,,
3.6953125000,118,4182.9487304688,4163.9741210938,4198.2050781250,4190.1284179688,4166.7949218750,4162.6923828125,4187.1796875000,4155.8974609375,4164.8715820313,4175.0000000000,4165.7690429688,4184.6152343750,4172.0512695313,4182.9487304688,,,
3.7031250000,118,4181.2822265625,4161.2822265625,4193.8461914063,4183.7177734375,4176.9228515625,4165.2563476563,4183.3334960938,4159.6152343750,4163.2050781250,4179.8715820313,4166.7949218750,4188.0771484375,4170.0000000000,4181.6665039063,,,
3.7109375000,118,4185.3847656250,4173.9741210938,4197.1796875000,4179.4873046875,4181.6665039063,4178.0771484375,4188.4614257813,4165.2563476563,4173.5898437500,4186.0258789063,4166.4101562500,4192.0512695313,4172.0512695313,4181.9228515625,,,
3.7187500000,119,4184.4873046875,4174.3588867188,4194.7436523438,4179.6152343750,4166.6665039063,4179.1025390625,4190.2563476563,4162.1796875000,4173.7177734375,4188.2050781250,4164.3588867188,4186.1538085938,4175.3847656250,4179.7436523438,,,
3.7265625000,119,4179.7436523438,4164.4873046875,4186.1538085938,4173.9741210938,4158.5898437500,4170.0000000000,4189.6152343750,4162.8203125000,4168.9741210938,4181.1538085938,4166.9228515625,4182.5639648438,4172.5639648438,4180.8974609375,,,
3.7343750000,119,4173.9741210938,4158.8461914063,4177.5639648438,4163.0771484375,4165.1284179688,4169.2309570313,4191.0258789063,4159.8715820313,4171.5385742188,4177.8203125000,4162.8203125000,4182.5639648438,4165.2563476563,4177.1796875000,,,
3.7421875000,119,4171.6665039063,4154.2309570313,4170.3847656250,4160.6411132813,4169.8715820313,4171.9228515625,4188.5898437500,4155.0000000000,4171.4101562500,4178.2050781250,4151.6665039063,4175.3847656250,4161.1538085938,4170.7690429688,,,
3.7500000000,120,4168.4614257813,4153.9741210938,4166.0258789063,4159.3588867188,4166.0258789063,4169.6152343750,4184.1025390625,4154.3588867188,4162.5639648438,4164.7436523438,4151.5385742188,4164.1025390625,4162.8203125000,4165.6411132813,,,
3.7578125000,120,4169.2309570313,4157.9487304688,4163.5898437500,4156.2822265625,4165.8974609375,4170.8974609375,4187.5639648438,4149.1025390625,4159.4873046875,4158.4614257813,4156.0258789063,4165.8974609375,4162.3076171875,4166.0258789063,,,
3.7656250000,120,4170.7690429688,4161.0258789063,4168.3334960938,4166.7949218750,4175.0000000000,4181.9228515625,4195.8974609375,4151.7949218750,4171.5385742188,4183.7177734375,4156.2822265625,4175.5126953125,4162.4360351563,4169.1025390625,,,
3.7734375000,120,4172.0512695313,4164.7436523438,4173.3334960938,4171.5385742188,4174.6152343750,4189.2309570313,4202.8203125000,4161.0258789063,4177.9487304688,4199.6152343750,4158.5898437500,4180.6411132813,4161.4101562500,4172.8203125000,,,
3.7812500000,121,4167.1796875000,4165.6411132813,4165.0000000000,4159.4873046875,4162.0512695313,4183.4614257813,4193.3334960938,4154.1025390625,4171.5385742188,4182.8203125000,4155.3847656250,4173.7177734375,4157.0512695313,4167.3076171875,,,
3.7890625000,121,4163.7177734375,4155.8974609375,4152.9487304688,4149.1025390625,4153.4614257813,4175.3847656250,4183.3334960938,4142.0512695313,4167.4360351563,4169.8715820313,4146.2822265625,4166.0258789063,4156.5385742188,4160.8974609375,,,
3.7968750000,121,4165.6411132813,4152.9487304688,4156.2822265625,4149.2309570313,4162.6923828125,4178.0771484375,4186.1538085938,4152.6923828125,4175.5126953125,4176.5385742188,4152.3076171875,4168.3334960938,4162.0512695313,4166.4101562500,,,
3.8046875000,121,4171.7949218750,4161.2822265625,4163.2050781250,4151.7949218750,4173.2050781250,4182.9487304688,4190.2563476563,4162.1796875000,4176.2822265625,4179.3588867188,4162.4360351563,4170.7690429688,4164.6152343750,4172.4360351563,,,
3.8125000000,122,4172.8203125000,4166.4101562500,4163.4614257813,4156.0258789063,4177.3076171875,4186.4101562500,4188.0771484375,4163.5898437500,4174.8715820313,4181.6665039063,4162.1796875000,4166.5385742188,4169.4873046875,4172.8203125000,,,
3.8203125000,122,4174.3588867188,4166.1538085938,4160.0000000000,4159.6152343750,4181.1538085938,4186.7949218750,4193.7177734375,4173.3334960938,4186.6665039063,4188.7177734375,4160.0000000000,4167.0512695313,4172.3076171875,4173.9741210938,,,
3.8281250000,122,4177.3076171875,4171.6665039063,4165.0000000000,4161.4101562500,4179.1025390625,4183.7177734375,4197.0512695313,4180.3847656250,4194.7436523438,4198.2050781250,4161.5385742188,4175.8974609375,4171.6665039063,4178.7177734375,,,
3.8359375000,122,4179.8715820313,4178.0771484375,4173.3334960938,4163.0771484375,4170.5126953125,4181.0258789063,4193.5898437500,4176.6665039063,4188.2050781250,4203.8461914063,4164.6152343750,4181.9228515625,4175.7690429688,4181.4101562500,,,
