Time:256Hz,Epoch,Channel 1,Channel 2,Channel 3,Channel 4,Channel 5,Channel 6,Channel 7,Channel 8,Channel 9,Channel 10,Channel 11,Channel 12,Channel 13,Channel 14,Event Id,Event Date,Event Duration
0.0000000000,0,0.0070153438,0.0070282019,0.0070307737,0.0070279881,0.0069859848,0.0069954142,0.0069536256,0.0069422676,0.0069296241,0.0070117011,0.0070481323,0.0070269164,0.0070582040,0.0069997000,,,
0.0039062500,0,0.0617961537,0.0619079033,0.0619305539,0.0619068760,0.0615272842,0.0616184784,0.0612444198,0.0611516689,0.0610392381,0.0617739279,0.0620853703,0.0619027956,0.0621704354,0.0616527971,,,
0.0078125000,0,0.2743324764,0.2748204516,0.2749207754,0.2748245622,0.2730930160,0.2735385270,0.2718472418,0.2714763756,0.2709747834,0.2742803151,0.2756157509,0.2748292164,0.2759765623,0.2736668795,,,
0.0117187500,0,0.8378883415,0.8393535859,0.8396587317,0.8394079457,0.8339738333,0.8354650294,0.8301992126,0.8292121965,0.8276783372,0.8378653590,0.8417964646,0.8394816701,0.8428500669,0.8357578333,,,
0.0156250000,1,2.0179585820,2.0214416271,2.0221717755,2.0216991548,2.0082654536,2.0121659042,1.9992491935,1.9972483359,1.9935515873,2.0181841073,2.0273232452,2.0219869674,2.0297600504,2.0125914805,,,
0.0195312500,1,4.1346721616,4.1417825457,4.1432621105,4.1425803283,4.1143518617,4.1229375401,4.0960443973,4.0927096567,4.0851016643,4.1355695110,4.1537436918,4.1433350323,4.1585659900,4.1232288617,,,
0.0234375000,1,7.5470778827,7.5601897501,7.5628391652,7.5620729092,7.5092253046,7.5258870145,7.4761581389,7.4713744543,7.4573408228,7.5492334320,7.5817063908,7.5636871401,7.5902401004,7.5254948143,,,
0.0273437500,1,12.6392299844,12.6617625152,12.6660691095,12.6654093115,12.5745385630,12.6039344115,12.5198402252,12.5137864862,12.4899244646,12.6432661578,12.6970676713,12.6684969433,12.7109189083,12.6021635851,,,
0.0312500000,2,19.8079464959,19.8446850974,19.8511736209,19.8507405040,19.7043156324,19.7524500008,19.6197877178,19.6130045735,19.5750425309,19.8143073370,19.8986883786,19.8562945081,19.9196276972,19.7488053567,,,
0.0351562500,2,29.4520866708,29.5094495033,29.5186969458,29.5183314399,29.2942480205,29.3684409168,29.1704414883,29.1639087442,29.1069803585,29.4607273211,29.5877067046,29.5279562142,29.6175056574,29.3631213627,,,
0.0390625000,2,41.9631924213,42.0493512805,42.0620895723,42.0611197429,41.7324696225,41.8412023404,41.5587048904,41.5539285454,41.4731107337,41.9731957225,42.1581005312,42.0773048219,42.1983868161,41.8356123484,,,
0.0429687500,2,57.7173632478,57.8421935567,57.8595043522,57.8565523207,57.3916607418,57.5443410710,57.1559712205,57.1550300031,57.0460049390,57.7265746924,57.9884355555,57.8829332871,58.0406338866,57.5414656488,,,
0.0468750000,3,77.0682944461,77.2432044707,77.2667587110,77.2596439694,76.6223289222,76.8290565919,76.3113579673,76.3168486814,76.1764820318,77.0730904404,77.4347877411,77.3012004519,77.5001644813,76.8336049769,,,
0.0507812500,3,100.3414632878,100.5791783743,100.6114551324,100.5972059031,99.7471580285,100.0185492096,99.3460681509,99.3609421793,99.1876416042,100.3367004228,100.8248616282,100.6603747729,100.9046325412,100.0368872046,,,
0.0546875000,3,127.8294267316,128.1437836365,128.1882203299,128.1631746822,127.0563480655,127.4034460622,126.5488024339,126.5761344433,126.3699327882,127.8085528171,128.4532698724,128.2558781379,128.5487069754,127.4434031446,,,
0.0585937500,3,159.7881548424,160.1939320802,160.2549844122,160.2149555017,158.8038776015,159.2381637029,158.1721435191,158.2148934743,157.9772299867,159.7434371838,160.5778823876,160.3465526181,160.6903633680,159.3088012185,,,
0.0625000000,4,196.4343301381,196.9471134086,197.0302336633,196.9706807556,195.2046523347,195.7381287586,194.4298459079,194.4907086347,194.2239832473,196.3571054393,197.4171454262,197.1518758995,197.5481101594,195.8495585807,,,
0.0664062500,4,237.9435155985,238.5795775485,238.6911453987,238.6072682344,236.4325198979,237.0777816842,235.4949578855,235.5763877792,235.2834991186,237.8243400547,239.1482440989,238.8500361607,239.2990633593,237.2411053801,,,
0.0703125000,4,284.4490358126,285.2252088021,285.3724483395,285.2591688657,282.6190895887,283.3892955265,281.4986724566,281.6030755682,281.2871623621,284.2776924456,285.9059516115,285.5767428108,286.0777572410,283.6166639333,,,
0.0742187500,4,336.0414214522,336.9749553802,337.1658493091,337.0177324742,333.8532429850,334.7619362065,332.5297904218,332.6597755936,332.3242588047,335.8068529794,337.7820393188,337.4246486848,337.9755761478,335.0666730678,,,
0.0781250000,5,392.7683302844,393.8767415028,394.1199327710,393.9311539698,390.1812098037,391.2419934411,388.6347028530,388.7932646914,388.4421302593,392.4586091643,394.8251819046,394.4432894660,395.0407120946,391.6387219238,,,
0.0820312500,5,454.6349186290,455.9358448372,456.2405151702,456.0049606584,451.6071147456,452.8332324159,449.8178463975,450.0084067228,449.6465649569,454.2373211759,457.0413307070,456.6394806301,457.2785756244,453.3379645557,,,
0.0859375000,5,521.6046658012,523.1157435240,523.4914735091,523.2029769412,518.0939413444,519.4978341843,516.0426144587,516.2689156282,515.9024622388,521.1058326548,524.3945389257,523.9781410194,524.6526150739,520.1280000007,,,
0.0898437500,5,593.6006476507,595.3394227344,595.7960494950,595.4486890935,589.5648721767,591.1577865465,587.2326942801,587.4985791702,587.1348384775,592.9867597958,596.8082191159,596.3835289464,597.0855339363,591.9321864968,,,
0.0937500000,6,670.5072258260,672.4910980364,673.0385806771,672.6269441223,665.9049488564,667.6966616387,663.2737657089,663.5828948213,663.2302036628,669.7641422769,674.1668060114,673.7408764660,674.4609206215,668.6353362006,,,
0.0976562500,6,752.1720857624,754.4182838059,755.0665715190,754.5859402590,746.9629835407,748.9616979703,744.0154865434,744.3710420152,744.0383163452,751.2854531875,756.3177843837,755.8983914143,756.6252937109,750.0857278188,,,
0.1015625000,6,838.4085422299,840.9341239785,841.6930173196,841.1394845235,832.5536808637,834.7661116184,829.2737130282,829.6781304698,829.3743440946,837.3639331493,843.0740223497,842.6695731837,843.3905168494,836.0973837257,,,
0.1054687500,6,928.9980480469,931.8199146106,932.6989232848,932.0694934844,922.4599878487,924.8915900701,918.8329301504,919.2876940246,919.0214621778,927.7811664425,934.2163378126,933.8357713963,934.5364836635,926.4525733367,,,
0.1093750000,7,1023.6928696990,1026.8277755971,1027.8359892081,1027.1286958012,1016.4357268785,1019.0909531125,1012.4488696377,1012.9544081009,1012.7338523588,1022.2898024858,1029.4962315583,1029.1489186318,1029.8139544866,1020.9045083971,,,
0.1132812500,7,1122.2189034619,1125.6834506636,1126.8294352748,1126.0434746599,1114.2085337345,1117.0909742051,1109.8512832791,1110.4069833308,1110.2399373537,1120.6163568316,1128.6387371315,1128.3343831309,1128.9474526948,1119.1801832964,,,
0.1171875000,7,1224.2785951246,1228.0892146509,1229.3809321557,1228.5167873391,1215.4830235672,1218.5953337430,1210.7468314506,1211.3511502020,1211.2456073178,1222.4640710370,1231.3453472323,1231.0939002577,1231.6381727308,1220.9832981465,,,
0.1210937500,7,1329.5539179706,1333.7268547528,1335.1715905105,1334.2311226633,1319.9440090483,1323.2876367171,1314.8220412537,1315.4726415593,1315.4372465115,1327.5158343383,1337.2969779575,1337.1085496493,1337.5668848219,1325.9972074821,,,
0.1250000000,8,1437.7093721011,1442.2606866559,1443.8649716302,1442.8514813158,1427.2595806479,1430.8344032218,1421.7462828263,1422.4401205099,1422.4845228907,1435.4371625274,1446.1569404633,1446.0417525462,1446.3968360860,1433.8878684201,,,
0.1289062500,8,1548.3949835732,1553.3405696229,1555.1100922779,1554.0283637451,1537.0839589781,1540.8879644971,1531.1747158055,1531.9080601164,1532.0430438673,1545.8792057981,1557.5739082125,1557.5422690730,1557.7766531257,1544.3067903838,,,
0.1328125000,8,1661.2492864346,1666.6048869764,1668.5443992198,1667.4007325756,1649.0601794650,1653.0892678142,1642.7511769107,1643.5196078025,1643.7570147446,1658.4817351912,1671.1848776256,1671.2471729765,1671.3432503680,1656.8939851244,,,
0.1367187500,8,1775.9022648926,1781.6834596580,1783.7966861474,1782.5989082233,1762.8227511346,1767.0706540759,1756.1110017344,1756.9094456115,1757.2619688860,1772.8760507022,1786.6181036654,1786.7847746337,1786.7247346979,1771.2808891540,,,
0.1406250000,9,1891.9782298687,1898.2003704003,1900.4899347451,1899.2473685186,1878.0003721052,1882.4586638661,1870.8837846670,1871.7066165201,1872.1875419030,1888.6877717001,1903.4959585551,1903.7774617100,1903.5432734906,1887.0932104256,,,
0.1445312500,9,2009.0986023380,2015.7766937878,2018.2440764850,2016.9674441123,1994.2186365594,1998.8768440940,1986.6960751774,1987.5372620450,1988.1601897360,2005.5395071284,2021.4376533943,2021.8444366670,2021.4178790218,2003.9536567937,,,
0.1484375000,9,2126.8845664350,2134.0331299810,2136.6786593752,2135.3799146095,2111.1025896741,2115.9484352317,2103.1739861874,2104.0272166078,2104.8057288064,2123.0534338470,2140.0618152325,2140.6043462851,2139.9670727767,2121.4845336514,,,
0.1523437500,9,2244.9595601975,2252.5925184264,2255.4153738263,2254.1075044706,2228.2790802052,2233.2988389920,2219.9456740690,2220.8044226364,2221.7516313423,2240.8537953621,2258.9889629675,2259.6777985656,2258.8114170930,2239.3102202494,,,
0.1562500000,10,2362.9516004556,2371.0821916761,2374.0803926736,2372.7772611079,2345.3790087565,2350.5578920291,2336.6436658528,2337.5011572647,2338.6291206826,2358.5692817713,2377.8438980959,2378.6897425186,2377.5759121242,2357.0595231877,,,
0.1601562500,10,2480.4954538008,2489.1361427543,2492.3065164586,2491.0227919412,2462.0395877034,2467.3620367220,2452.9070401092,2453.7560910123,2455.0752009842,2475.8352389566,2496.2579795385,2497.2716804934,2495.8922514148,2474.3678856228,,,
0.1640625000,10,2597.2346605939,2606.3970135329,2609.7351577339,2608.4863460296,2577.9066116969,2583.3564283131,2568.3834807537,2569.2162300081,2570.7347578437,2592.2957003071,2613.8712520597,2615.0637101858,2613.4009284591,2590.8794331398,,,
0.1679687500,10,2712.8234189188,2722.5179411411,2726.0182223984,2724.8207360915,2692.6366162201,2698.1969378696,2682.7312084744,2683.5388054092,2685.2627664893,2707.6052861570,2730.3344200531,2731.7164312820,2729.7531922838,2706.2488586995,,,
0.1718750000,11,2826.9283370186,2837.1643031430,2840.8199265796,2839.6910997306,2805.8987785292,2811.5519732775,2795.6207668059,2796.3931373652,2798.3264892768,2821.4310274206,2845.3106699795,2846.8927609675,2844.6128518919,2820.1431676900,,,
0.1757812500,11,2939.2300513896,2950.0153765981,2953.8185288855,2952.7764959287,2917.3764986583,2923.1040702693,2906.7366254408,2907.4624278179,2909.6074412440,2933.4541223861,2958.4773384111,2960.2696632044,2957.6579254080,2932.2433029325,,,
0.1796875000,11,3049.4246888178,3060.7658874065,3064.7079063581,3063.7713337637,3026.7687071921,3032.5512783870,3015.7785759889,3016.4453807775,3018.8029481656,3043.3715545120,3069.5274059927,3071.5397361169,3068.5821249198,3042.2456493879,,,
0.1835937500,11,3157.2251436689,3169.1273984940,3173.1989011267,3172.3866391528,3133.7909909067,3139.6084142319,3122.4629256515,3123.0575562354,3125.6273034666,3150.8974479784,3178.1707867024,3180.4125747185,3177.0961653418,3149.8633925966,,,
0.1875000000,12,3262.3621558750,3274.8294860856,3279.0204117404,3278.3511701548,3238.1765925665,3244.0082278938,3226.5235210187,3227.0324281816,3229.8127078651,3255.7640726263,3284.1353901505,3286.6158585288,3282.9288852489,3254.8276884712,,,
0.1914062500,12,3364.5852004033,3377.6206840399,3381.9202581903,3381.4123802089,3339.6772826854,3345.5024506430,3327.7126369925,3328.1221881103,3331.1101895685,3357.7225282934,3387.1679669516,3389.8961805554,3385.8281719410,3356.8886075859,,,
0.1953125000,12,3463.6632207230,3477.2692170703,3481.6658752476,3481.3372118966,3438.0640745986,3443.8626373715,3425.8017402488,3426.0983664364,3429.2905278886,3456.5432593507,3487.0347916488,3490.0196896948,3485.5616990517,3455.8158485892,,,
0.1992187500,12,3559.3852449489,3573.5635656463,3578.0448793213,3577.9127049571,3533.1277730275,3538.8807400431,3520.5821071261,3520.7523285282,3524.1449951834,3552.0165684882,3583.5222602747,3586.7726327895,3581.9175102758,3551.3992591944,,,
0.2031250000,13,3651.5609064622,3666.3128950681,3670.8655276340,3670.9464280768,3624.6793848739,3630.3694299713,3611.8652754890,3611.8956677017,3615.4857008173,3643.9531876345,3676.4374482377,3679.9618496552,3674.7044933502,3643.4492279519,,,
0.2070312500,13,3740.0208547325,3755.3473521478,3759.9570626470,3760.2667693156,3712.5504384983,3718.1622569671,3699.4833381664,3699.3604959586,3703.1455209958,3732.1848071011,3765.6086000143,3769.4152101756,3763.7527598565,3731.7969917908,,,
0.2109375000,13,3824.6170083489,3840.5182124458,3845.1699169773,3845.7231152026,3796.5932329381,3802.1137353759,3783.2891070077,3782.9996301125,3786.9778545288,3816.5643849857,3850.8854592832,3854.9819240209,3848.9138903020,3816.2948547660,,,
0.2148437500,13,3905.2226006606,3921.6978638094,3926.3757511216,3927.1859188732,3876.6809899084,3882.0993844607,3863.1561673593,3862.6866676299,3866.8565122286,3896.9661193401,3932.1393500068,3936.5326416491,3930.0609710794,3896.8162695005,,,
0.2187500000,14,3981.7320077513,3998.7796305174,4003.4673144322,4004.5466351712,3952.7078527854,3958.0156829234,3938.9788154121,3938.3159362574,3942.6758503523,3973.2851150232,4009.2629894932,4013.9593122335,4007.0883826996,3973.2557264098,,,
0.2226562500,14,4054.0604018580,4071.6774639340,4076.3581515582,4077.7175053206,4024.5886964178,4029.7798780665,4010.6718575380,4009.8023024243,4014.3509640549,4045.4369010396,4082.1700999972,4087.1748373639,4079.9113804322,4045.5284365924,,,
0.2265625000,14,4122.1433029270,4140.3255431077,4144.9822019248,4146.6312005671,4092.2587626569,4097.3296166553,4078.1702691452,4077.0808464083,4081.8176229532,4113.3569697376,4150.7949244345,4156.1126066749,4148.4655737261,4113.5698611546,,,
0.2304687500,14,4185.9360925894,4204.6778325180,4209.2933420667,4211.2403633455,4155.6731757562,4160.6224047384,4141.4287441580,4140.1064423656,4145.0317674317,4177.0004134004,4215.0917238350,4220.7259938539,4212.7064068295,4177.3351845477,,,
0.2343750000,15,4245.4135194706,4264.7076229874,4269.2648955926,4271.5170924225,4214.8063919006,4219.6349394734,4200.4211800323,4198.8532902182,4203.9686593484,4236.3415972579,4275.0342655087,4280.9878397542,4272.6086716611,4236.7988085703,,,
0.2382812500,15,4300.5691801247,4320.4070411864,4324.8890954673,4327.4523914897,4269.6516042666,4274.3623785162,4255.1401215897,4253.3144180727,4258.6219606217,4291.3737303722,4330.6152509295,4336.8898921035,4328.1659971689,4291.9538625927,,,
0.2421875000,15,4351.4149291490,4371.7864788831,4376.1764556732,4379.0555543675,4320.2200884004,4324.8176061190,4305.5961509870,4303.5011287983,4309.0029779808,4342.1082323887,4381.8456229895,4388.4421486471,4379.3902234435,4342.8116493092,,,
0.2460937500,15,4397.9801781627,4418.8738914218,4423.1550196888,4426.3534390069,4366.5404614561,4371.0305169077,4351.8171954649,4349.4423442248,4355.1401282240,4388.5739105853,4428.7537433236,4435.6720793599,4426.3106138925,4389.4009433865,,,
0.2500000000,16,4440.3110832489,4461.7139530762,4465.8694997359,4469.3896157939,4408.6578503196,4413.0472966245,4393.8477399993,4391.1838236718,4397.0785000249,4430.8160608905,4471.3845040989,4478.6237597846,4468.9729489491,4431.7671346433,,,
0.2539062500,16,4478.4696580108,4500.3671099814,4504.3803635200,4508.2234326742,4446.6329956827,4450.9296663118,4431.7479587914,4428.7872752809,4434.8793233245,4468.8956090579,4509.7984650581,4517.3569778288,4507.4385988699,4469.9712865431,,,
0.2578125000,16,4512.5328494316,4534.9085948490,4538.7629182460,4542.9290601165,4480.5413282828,4484.7540721596,4465.5927923042,4462.3293944680,4468.6192074289,4502.8883179148,4544.0710454581,4551.9463463423,4541.7836345874,4504.0891897280,,,
0.2617187500,16,4542.5915802070,4565.4274414938,4569.1063863247,4573.5945442839,4510.4720300947,4514.6108189516,4495.4709876511,4491.9008401908,4498.3891058954,4532.8839825233,4574.2916970790,4582.4803884610,4572.0979384870,4534.2104237747,,,
0.2656250000,17,4568.7497318459,4592.0254880118,4595.5129173446,4600.3208484671,4536.5270619791,4540.6031414031,4521.4841016424,4517.6051320179,4524.2930478923,4558.9855013399,4600.5629400286,4609.0605282553,4598.4842234608,4560.4373709068,,,
0.2695312500,17,4591.1230484690,4614.8163310227,4618.0964909137,4623.2208490529,4558.8201305659,4562.8461930662,4543.7454557458,4539.5574619283,4546.4467267774,4581.3077691602,4622.9992139197,4631.7999591044,4621.0569227015,4582.8841286695,,,
0.2734375000,17,4609.8379750223,4633.9242108488,4636.9817324046,4642.4182751992,4577.4755866169,4581.4659281383,4562.3790419594,4557.8834655907,4564.9760716478,4599.9764362483,4641.7256303594,4650.8224473472,4639.9410266711,4601.6753399850,,,
0.2773437500,17,4625.0304760858,4649.4828529762,4652.3027275926,4658.0466114662,4592.6272786116,4596.5978748214,4577.5184045157,4572.7180421276,4580.0159493510,4615.1266457566,4656.8767918387,4666.2611833545,4655.2710024598,4616.9450262872,,,
0.2812500000,18,4636.8448953092,4661.6343325955,4664.2019283303,4670.2480025036,4604.4174120375,4608.3858491302,4589.3055425022,4584.2043005494,4591.7091219526,4626.9018616128,4668.5957962423,4678.2577676353,4667.1898715371,4628.8355140737,,,
0.2851562500,18,4645.4329049474,4670.5280364152,4672.8291904992,4679.1722037216,4612.9954719812,4616.9807065018,4597.8898701770,4592.4926443866,4600.2054809094,4635.4528451452,4677.0334139024,4686.9613348197,4675.8483973342,4637.4964883408,,,
0.2890625000,18,4650.9525560328,4676.3197536182,4678.3409131315,4684.9756013343,4618.5172387203,4622.5392307137,4603.4272357777,4597.7399276273,4605.6614158757,4640.9367678972,4682.3473109862,4692.5277375654,4681.4042556167,4643.0841324624,,,
0.2929687500,18,4653.5673848564,4679.1708526564,4680.8991935061,4687.8202816544,4621.1438694594,4625.2231932452,4606.0789621835,4600.1085760719,4608.2390598547,4643.5163893328,4684.7011782295,4695.1186883811,4684.0210895035,4645.7602699939,,,
0.2968750000,19,4653.4454956580,4679.2474447908,4680.6709081518,4687.8730962966,4621.0409760990,4625.1985189939,4606.0108654373,4599.7655976222,4608.1052051238,4643.3592005198,4684.2637046972,4694.9007954058,4683.8674470539,4645.6914335044,,,
0.3007812500,19,4650.7585564909,4676.7194483524,4677.8266810413,4685.3046805200,4618.3776439310,4622.6344439660,4603.3922399910,4596.8814919560,4605.4299184103,4640.6364557694,4681.2074429499,4692.0444973786,4681.1156736260,4643.0478436550,,,
0.3046875000,19,4645.6807118738,4671.7595449329,4672.5397795935,4680.2884293563,4613.3254086504,4617.7025943306,4598.3948495860,4591.6291586276,4600.3851442274,4635.5220834287,4675.7076700320,4686.7229610042,4675.9408330893,4638.0023523545,,,
0.3085937500,19,4638.3874856554,4664.5420992025,4664.9850330535,4672.9994776306,4606.0572810971,4610.5760219589,4591.1919875038,4584.1829233402,4593.1436518501,4628.1915496942,4667.9413297413,4679.1110188437,4668.5196810914,4630.7294342452,,,
0.3125000000,20,4629.0547694457,4655.2421366933,4655.3378559218,4663.6137321742,4596.7469100655,4601.4283047696,4581.9576419521,4574.7177325219,4583.8784719927,4618.8207930202,4658.0860763514,4669.3841963800,4659.0296686424,4621.4042744799,,,
0.3164062500,20,4617.8579535808,4644.0344324863,4643.7733945102,4652.3069748724,4585.5678925554,4590.4327885649,4570.8657413275,4563.4084612401,4572.7626408710,4607.5853222844,4646.3193874121,4657.7178298799,4647.6479578426,4610.2019315889,,,
0.3203125000,20,4604.9711884480,4631.0927018573,4630.4657548113,4639.2540250282,4572.6931465516,4577.7619394308,4558.0894159101,4550.4292263940,4559.9688842975,4594.6594952199,4632.8177093998,4644.2862452900,4634.5504755519,4597.2965176369,,,
0.3242187500,20,4590.5667089879,4616.5888473159,4615.5872577427,4624.6279406488,4558.2942353603,4563.5866996355,4543.8002315869,4535.9526339665,4545.6689655545,4580.2159096155,4617.7556329659,4629.2619699754,4619.9110670662,4582.8603626282,,,
0.3281250000,21,4574.8141597382,4600.6922317814,4599.3077062694,4608.5992571920,4542.5406046282,4548.0757772832,4528.1674077530,4520.1489760452,4530.0327159452,4564.4248060057,4601.3051247802,4612.8149812832,4603.9007882023,4567.0631907752,,,
0.3320312500,21,4557.8799127203,4583.5689896684,4581.7936939574,4591.3352852250,4525.5987904513,4531.3948994948,4511.3570696710,4503.1854489902,4513.2270037643,4547.4534214424,4583.6348402430,4595.1120230150,4586.6873093566,4550.0713706170,,,
0.3359375000,21,4539.9263964418,4565.3813901953,4563.2079776684,4572.9994748160,4507.6316604717,4513.7060912558,4493.5315688305,4485.2254450136,4495.4148433380,4529.4652895012,4564.9095124815,4576.3159992029,4568.4343877549,4532.0472674046,,,
0.3398437500,21,4521.1114541996,4546.2872589880,4543.7089201192,4553.7508387806,4488.7977062753,4495.1670146059,4474.8488765196,4466.4279341212,4476.7547064631,4510.6195130770,4545.2893984877,4556.5854336852,4549.3013888174,4513.1486921531,,,
0.3437500000,22,4501.5877797088,4526.4394986925,4523.4500326566,4533.7434502589,4469.2504179912,4475.9303918026,4455.4620578162,4446.9469515393,4457.4000983936,4491.0700823937,4524.9297785143,4536.0740138214,4529.4428410875,4493.5284602197,,,
0.3476562500,22,4481.5024735675,4505.9857355594,4502.5796299840,4513.1260291258,4449.1377723738,4456.1435147385,4435.5188248192,4426.9311824798,4437.4993652564,4470.9653277893,4503.9805148927,4514.9302330785,4509.0080136014,4473.3340554801,,,
0.3515625000,22,4460.9967010252,4485.0680419290,4481.2405421420,4492.0415929075,4428.6018192912,4435.9478112517,4415.1611431852,4406.5235933810,4417.1955242392,4450.4475307485,4482.5856672198,4493.2970948467,4488.1405219038,4452.7073413651,,,
0.3554687500,22,4440.2054104007,4463.8226839025,4459.5698387378,4470.6271451269,4407.7783344630,4415.4784351613,4394.5248717209,4385.8610744645,4396.6259672802,4429.6526678300,4460.8831586245,4471.3118439167,4466.9779802957,4431.7842817362,,,
0.3593750000,23,4419.2570851148,4442.3798784860,4437.6985602232,4449.0133937888,4386.7965248278,4394.8638682521,4373.7394311365,4365.0740846328,4375.9220236930,4408.7102592328,4439.0044877442,4449.1057195230,4445.6517076950,4410.6946751769,,,
0.3632812500,23,4398.2734914653,4420.8635138275,4415.7514314366,4427.3244877179,4365.7787935367,4374.2255687723,4352.9274972504,4344.2862731195,4355.2083747263,4387.7432576437,4417.0744688128,4426.8036998889,4424.2864563267,4389.5618799107,,,
0.3671875000,23,4377.3694095986,4399.3908103223,4393.8465490438,4405.6777643808,4344.8405723384,4353.6777230018,4332.2047257534,4323.6140870578,4334.6024048573,4366.8679031078,4395.2109880863,4404.5242178650,4403.0001325477,4368.5025169139,,,
0.3710937500,23,4356.6523958932,4378.0719927148,4372.0950973063,4384.1835290223,4324.0902089968,4333.3271163502,4311.6795329647,4303.1664442389,4314.2136998279,4346.1935336824,4373.5247912551,4382.3788870322,4381.9035300524,4347.6261998531,,,
0.3750000000,24,4336.2226247872,4357.0100356461,4350.6011426307,4362.9448824256,4303.6289030098,4313.2731123525,4291.4529468554,4283.0445281832,4294.1438059316,4325.8223914459,4352.1193215208,4360.4722774398,4361.1001082559,4327.0353463163,,,
0.3789062500,24,4316.1728238586,4336.3004888113,4329.4615154644,4342.0575982702,4283.5506878247,4293.6077245566,4271.6185228005,4263.3417079620,4274.4862241653,4305.8494520133,4331.0906135881,4338.9017435152,4340.6858245702,4306.8250920247,,,
0.3828125000,24,4296.5883013557,4316.0313991552,4308.7657685442,4321.6100546812,4263.9424084336,4274.4157263932,4252.2623084199,4244.1435776606,4255.3265945705,4286.3622632469,4310.5272365586,4317.7573046620,4320.7490225175,4287.0832974949,,,
0.3867187500,24,4277.5470279543,4296.2833367435,4288.5961724798,4301.6832188438,4244.8836291082,4255.7747186933,4233.4628371817,4225.5280721970,4236.7429738277,4267.4407517685,4290.5102596875,4297.1215696317,4301.3703638194,4267.8905899987,,,
0.3906250000,25,4259.1196975820,4277.1294736126,4269.0276929353,4282.3506629554,4226.4464799567,4237.7551185557,4215.2911365197,4207.5655617726,4218.8060424866,4249.1569822508,4271.1132026615,4277.0696754353,4282.6227717294,4249.3203628149,,,
0.3945312500,25,4241.3697280843,4258.6356582497,4250.1279358763,4263.6785919719,4208.6955204545,4220.4200951144,4197.8107528128,4190.3188546729,4201.5791416621,4231.5749296587,4252.4019594153,4257.6692314865,4264.5713708914,4231.4387002528,,,
0.3984375000,25,4224.3532436253,4240.8604763106,4231.9571126388,4245.7258910075,4191.6876986124,4203.8255084776,4181.0778087784,4173.8431297075,4185.1181733105,4214.7503880151,4234.4347396362,4238.9803021794,4247.2734586248,4214.3042720711,,,
0.4023437500,25,4208.1191248948,4223.8553343396,4214.5681012742,4228.5442209893,4175.4724359157,4188.0199053170,4165.1411121541,4158.1858999912,4169.4714916134,4198.7311229859,4217.2621061345,4221.0554795215,4230.7785757929,4197.9682878691,,,
0.4062500000,26,4192.7091815146,4207.6646124130,4198.0066460882,4212.1781846217,4160.0918191726,4173.0446048496,4150.0423281361,4143.3871289733,4154.6799254078,4183.5572733706,4200.9271651737,4203.9400767838,4215.1287274926,4182.4745935690,,,
0.4101562500,26,4178.1584241889,4192.3258976449,4182.3116706949,4196.6655570193,4145.5808618376,4158.9338883991,4135.8162122058,4129.4795568507,4140.7770033474,4169.2618857310,4185.4658999472,4187.6724285969,4200.3587383331,4167.8599309343,,,
0.4140625000,26,4164.4953437249,4177.8702594771,4167.5156256925,4182.0375390536,4131.9678068087,4145.7152942307,4122.4908789697,4116.4891726854,4127.7893508126,4155.8714044616,4170.9075594989,4172.2842311376,4186.4966444682,4154.1542936868,,,
0.4179687500,26,4151.7420958959,4164.3225022509,4153.6447875919,4168.3189726579,4119.2744530425,4133.4099968824,4110.0880718932,4104.4356680137,4115.7371554345,4143.4059940952,4157.2749829361,4157.8008272293,4173.5639928883,4141.3812553231,,,
0.4218750000,27,4139.9145986382,4151.7013631576,4140.7194852695,4155.5285009202,4107.5164808309,4122.0331948606,4098.6234164328,4093.3327487452,4104.6345952772,4131.8797426905,4144.5848153938,4144.2413942242,4161.5760212158,4129.5581929305,,,
0.4257812500,27,4129.0226684579,4140.0196881983,4128.7543083674,4143.6787313015,4096.7037533684,4111.5944219179,4088.1066716966,4083.1883569970,4094.4901927954,4121.3009104542,4132.8477009348,4131.6191030754,4150.5418416829,4118.6964662284,,,
0.4296875000,27,4119.0702956071,4129.2846477135,4117.7583676525,4132.7764749245,4086.8406002067,4102.0977825233,4078.5420054902,4074.0049621794,4085.3071271134,4111.6722966975,4122.0685673820,4119.9413563016,4140.4647588880,4108.8016738494,,,
0.4335937500,27,4110.0560447818,4119.4980280734,4107.7356204301,4122.8230809337,4077.9261019729,4093.5421740520,4069.9282990589,4065.7799921479,4077.0835275114,4102.9916506487,4112.2470311816,4109.2101443339,4131.3427273359,4099.8740293829,,,
0.4375000000,28,4101.9735034165,4110.6565878366,4098.6852110126,4113.8148243782,4069.9543840511,4085.9215375735,4062.2594689563,4058.5063145542,4069.8127345959,4095.2520260002,4103.3778534899,4099.4224669056,4123.1688506425,4091.9087825140,,,
0.4414062500,28,4094.8116983051,4102.7524226978,4090.6017562774,4105.7432813870,4062.9149147960,4079.2251444304,4055.5247887987,4052.1726151199,4063.4835274163,4088.4420476813,4095.4513450193,4090.5707203781,4115.9318048755,4084.8965684533,,,
0.4453125000,28,4088.5554381270,4095.7732700036,4083.4755339237,4098.5956462078,4056.7927986031,4073.4379148197,4049.7091997225,4046.7635864077,4058.0803442794,4082.5461300277,4088.4536579869,4082.6429772842,4109.6161273354,4078.8236232799,,,
0.4492187500,28,4083.1855853933,4089.7027194888,4077.2925871422,4092.3549891914,4051.5690575048,4068.5407696879,4044.7936099842,4042.2599698424,4053.5835270296,4077.5447059466,4082.3669837171,4075.6231599730,4104.2024034783,4073.6719047867,,,
0.4531250000,29,4078.6792934424,4084.5203684643,4072.0348134713,4087.0004941672,4047.2209128198,4064.5110203328,4040.7551930711,4038.6385909328,4049.9696017052,4073.4145030995,4077.1697369548,4069.4911844570,4099.6674452783,4069.4192336127,,,
0.4570312500,29,4075.0102606209,4080.2020185913,4067.6801261807,4082.5077309346,4043.7221027841,4061.3227862391,4037.5676934041,4035.8725305515,4047.2115992571,4070.1288729634,4072.8368125491,4064.2231756331,4095.9845477162,4066.0395657156,,,
0.4609375000,29,4072.1490420880,4076.7199897500,4064.2027356096,4078.8489946079,4041.0432605072,4058.9474062144,4035.2017425229,4033.9314745366,4045.2794120852,4067.6581546650,4069.3399379865,4059.7918032846,4093.1238416208,4063.5034132780,,,
0.4648437500,29,4070.0634100917,4074.0435211739,4061.5735122455,4075.9936841709,4039.1523145110,4057.3537977388,4033.6251830389,4032.7821507568,4044.1401597657,4065.9700381129,4066.6480632554,4056.1666927751,4091.0526864326,4061.7783135602,,,
0.4687500000,30,4068.7187284015,4072.1391876671,4059.7603667183,4073.9086768098,4038.0148650513,4056.5087542776,4032.8033954111,4032.3887518578,4043.7585383805,4065.0299029154,4064.7277264400,4053.3148396120,4089.7360448994,4060.8292533117,,,
0.4726562500,30,4068.0783431547,4070.9713376590,4058.7286413298,4072.5587048491,4037.5945635152,4056.3772159681,4032.6996242558,4032.7133496455,4044.0971610667,4064.8011410449,4063.5433992115,4051.2010200784,4089.1368340941,4060.6190712932,,,
0.4765625000,30,4068.1039950447,4070.5025673986,4058.4415142004,4071.9067438031,4037.8535166296,4056.9225390613,4033.2753046680,4033.7163180446,4045.1168891004,4065.2454696282,4063.0578182968,4049.7881970364,4089.2162548916,4061.1088603451,,,
0.4804687500,30,4068.7561983674,4070.6941420211,4058.8603533982,4071.9143612817,4038.7526413816,4058.1067550851,4034.4903895585,4035.3566983998,4046.7771153381,4066.3232212509,4063.2322659048,4049.0378637608,4089.9340841860,4062.2582978595,,,
0.4843750000,31,4069.9945317076,4071.5062783711,4059.9449772107,4072.5419858615,4040.2519040372,4059.8908126656,4036.3036716947,4037.5924651306,4049.0359898755,4067.9936111569,4064.0267942615,4048.9102959112,4091.2489397611,4064.0258691582,,,
0.4882812500,31,4071.7778550653,4072.8983231862,4061.6538624518,4073.7491237126,4042.3104783012,4062.2348082699,4038.6730879835,4040.3807423042,4051.8506383987,4070.2149972796,4065.4004449989,4049.3647628566,4093.1185506604,4066.3690507995,,,
0.4921875000,31,4074.0644863701,4074.8288882958,4063.9443446285,4075.4945609455,4044.8868735084,4065.0982082403,4041.5560021827,4043.6780280341,4055.1774218878,4072.9451375807,4067.3114978797,4050.3597426007,4095.5000441917,4069.2445096167,,,
0.4960937500,31,4076.8123442886,4077.2559655773,4066.7728100956,4077.7365620624,4047.9390501450,4068.4400588882,4044.9094707169,4047.4404416185,4058.9722499102,4076.1414267834,4069.7177382552,4051.8531326411,4098.3502237303,4072.6083116685,,,
0.5000000000,32,4079.9790793109,4080.1370666000,4070.0948819952,4080.4330828299,4051.4245760939,4072.2191888590,4048.6904845664,4051.6239901327,4063.1909165910,4079.7610770585,4072.5766953957,4053.8024426169,4101.6257672613,4076.4161233118,,,
0.5039062500,32,4083.5222342616,4083.4294314294,4073.8655964890,4083.5420126885,4055.3008747772,4076.3944191827,4052.8561695970,4056.1848280563,4067.7893576403,4083.7612266170,4075.8457878302,4056.1649612726,4105.2832884865,4080.6233886114,,,
0.5078125000,32,4087.3994636992,4087.0902860359,4078.0395741294,4087.0214224639,4059.5255111722,4080.9247831225,4057.3639460621,4061.0794760088,4072.7237407388,4088.0990439836,4079.4823974798,4058.8979220614,4109.2793574247,4085.1855022255,,,
0.5117187500,32,4091.5688327624,4091.0771114508,4082.5712556612,4090.8297869907,4064.0564299570,4085.7697229027,4062.1716766844,4066.2650169283,4077.9504661517,4092.7319502685,4083.4440159525,4061.9587447604,4113.5707064038,4090.0580599010,,,
0.5156250000,33,4095.9891900475,4095.3479199704,4087.4152757154,4094.9261871366,4068.8521675453,4090.8892267090,4067.2378376862,4071.6993302087,4083.4262823868,4097.6179954111,4087.6885602313,4065.3053957356,4118.1147044894,4095.1972361103,,,
0.5195312500,33,4100.6205126830,4099.8615084262,4092.5268956728,4099.2704961335,4073.8721082522,4096.2439443138,4072.5217337119,4077.3413772847,4089.1086422795,4102.7162165300,4092.1747218698,4068.8967619452,4122.8698260553,4100.5601819555,,,
0.5234375000,33,4105.4240831278,4104.5776302667,4097.8622960741,4103.8235294714,4079.0767532627,4101.7953809128,4077.9837476949,4083.1514740763,4094.9561931393,4107.9867291722,4096.8621098448,4072.6928688232,4127.7957299928,4106.1052661573,,,
0.5273437500,33,4110.3625369511,4109.4571181865,4103.3786959856,4108.5471706016,4084.4279057766,4107.5061671184,4083.5855655958,4089.0914701582,4100.9291326698,4113.3906053739,4101.7112324431,4076.6549561861,4132.8530436292,4111.7921676453,,,
0.5312500000,34,4115.3999559461,4114.4620426525,4109.0344716426,4113.4045183781,4089.8887552938,4113.3402812419,4089.2903169804,4095.1248039405,4106.9892859598,4118.8898591724,4106.6835963356,4080.7455799184,4138.0033239924,4117.5819889494,,,
0.5351562500,34,4120.5020342493,4119.5558821090,4114.7893514661,4118.3600490270,4095.4239211697,4119.2631597233,4095.0626484552,4101.2164670373,4113.1000299307,4124.4476512196,4111.7419768908,4084.9287765485,4143.2093419060,4123.4374392693,,,
0.5390625000,34,4125.6361953179,4124.7036163469,4120.6045995750,4123.3797401988,4100.9994835617,4125.2417323546,4100.8687835617,4107.3329396637,4119.2262560258,4130.0285612143,4116.8506714931,4089.1701872475,4148.4354514668,4129.3229881809,,,
0.5429687500,34,4130.7715857937,4129.8717369408,4126.4431131325,4128.4311365959,4106.5829822411,4131.2444198964,4106.6765899025,4113.4421565092,4125.3344355331,4135.5988088111,4121.9756082387,4093.4370883303,4153.6478388914,4135.2049205696,,,
0.5468750000,35,4135.8789881443,4135.0282556787,4132.2694544317,4133.4833811794,4112.1433869381,4137.2411016791,4112.4556481194,4119.5135571885,4131.3927638754,4141.1264263004,4127.0843391694,4097.6983782134,4158.8146095606,4141.0513264140,,,
0.5507812500,35,4140.9307580850,4140.1427937980,4138.0498981097,4138.5072496094,4117.6510999200,4143.2030577910,4118.1773172883,4125.5182496398,4137.3713371520,4146.5814352202,4132.1460391052,4101.9246085757,4163.9057919648,4146.8321195466,,,
0.5546875000,35,4145.9008682639,4145.1867629699,4143.7525556148,4143.4752119997,4123.0780707375,4149.1029125813,4123.8147958398,4131.4292553266,4143.2423049429,4151.9360415771,4137.1316158084,4106.0881043170,4168.8933755691,4152.5191519976,,,
0.5585937500,35,4150.7650490267,4150.1335651897,4149.3475615951,4148.3615170805,4128.3980517314,4154.9146268125,4129.3431761754,4137.2217435739,4148.9799475931,4157.1647928787,4142.0139318667,4110.1631359092,4173.7514382017,4158.0864002082,,,
0.5625000000,36,4155.5009414810,4154.9587172871,4154.8072444583,4153.1422695871,4133.5869289433,4160.6135745444,4134.7394865378,4142.8731504283,4154.5606597245,4162.2446205381,4146.7680388093,4114.1260637506,4178.4563236180,4163.5101301439,,,
0.5664062500,36,4160.0881824614,4159.6398668460,4160.1062131545,4157.7954731479,4138.6229959861,4166.1766997979,4139.9827149363,4148.3631416085,4159.9628810614,4167.1547511552,4151.3713143406,4117.9554021890,4182.9867843022,4168.7689608891,,,
0.5703125000,36,4164.5084115579,4164.1567552790,4165.2213615025,4162.3010396328,4143.4870555847,4171.5827073489,4145.0538196321,4153.6734810825,4165.1670588333,4171.8765570968,4155.8034702198,4121.6318161045,4187.3240318102,4173.8438247136,,,
0.5742187500,36,4168.7452520288,4168.4912179581,4170.1318507249,4166.6407930320,4148.1623285625,4176.8122288531,4149.9357369152,4158.7879227909,4170.1557079499,4176.3934496862,4160.0464834070,4125.1381009538,4191.4516953946,4178.7178930543,,,
0.5781250000,37,4172.7843115266,4172.6272561141,4174.8191222629,4170.7984889122,4152.6342486942,4181.8479198532,4154.6133892262,4163.6922002669,4174.9135581942,4180.6908620720,4164.0845264381,4128.4591775685,4195.3557263572,4183.3765406262,,,
0.5820312500,37,4176.6131910672,4176.5511193324,4179.2669283977,4174.7598334870,4156.8902484818,4186.6744657057,4159.0736812889,4168.3740835256,4179.4276962945,4184.7562690939,4167.9039273465,4131.5820809370,4199.0242816482,4187.8073579364,,,
0.5859375000,37,4180.2214490004,4180.2512908718,4183.4613183604,4178.5124612097,4160.9195930163,4191.2784956010,4163.3054637192,4172.8233989569,4183.6875877544,4188.5791372220,4171.4931268484,4134.4958926716,4202.4475963203,4192.0001591638,,,
0.5898437500,37,4183.6004859904,4183.7183193040,4187.3905384175,4182.0458483537,4164.7132621104,4195.6484305980,4167.2994521890,4177.0319273862,4187.6849200738,4192.1507449281,4174.8425845442,4137.1915941688,4205.6178459330,4195.9469275197,,,
0.5937500000,38,4186.7433781062,4186.9445504094,4191.0448765573,4185.3511838564,4168.2638698370,4199.7743225160,4171.0481129942,4180.9931852187,4191.4133081557,4195.4639313174,4177.9446320625,4139.6618807441,4208.5290182674,4199.6416944286,,,
0.5976562500,38,4189.6447299819,4189.9238905215,4194.4165339726,4188.4212429691,4171.5656333657,4203.6477522607,4174.5455475124,4184.7021794401,4194.8679792484,4198.5129165986,4180.7933296067,4141.9010183082,4211.1768308162,4203.0804076552,,,
0.6015625000,38,4192.3006114641,4192.6517115631,4197.4995879903,4191.2502970192,4174.6144069385,4207.2618280164,4177.7874094997,4188.1552486117,4198.0455637407,4201.2933072862,4183.3843900816,4143.9048013328,4213.5587135530,4206.2608523127,,,
0.6054687500,38,4194.7085884246,4195.1249071559,4200.2900404000,4193.8340641414,4177.4077577685,4210.6112631258,4180.7708660194,4191.3500476391,4200.9440569303,4203.8022666938,4185.7151828016,4145.6705982649,4215.6738310336,4209.1826406553,,,
0.6093750000,39,4196.8677966452,4197.3420089684,4202.7858789117,4196.1696856800,4179.9450103303,4213.6924530163,4183.4945816844,4194.2856414530,4203.5629227526,4206.0387053368,4187.7847672599,4147.1974071663,4217.5230840004,4211.8472191749,,,
0.6132812500,39,4198.7789759538,4199.3032413695,4204.9870673687,4198.2557068467,4182.2271767475,4216.5034558364,4185.9586891141,4196.9626049402,4205.9032389351,4208.0033324048,4189.5938891769,4148.4858393981,4219.1090388522,4214.2578071213,,,
0.6171875000,39,4200.4444041495,4201.0104387261,4206.8954285973,4200.0920443071,4184.2567464838,4219.0438419220,4188.1647186412,4199.3830281226,4207.9677719251,4209.6985176746,4191.1449019188,4149.5380030641,4220.4357765870,4216.4192119456,,,
0.6210937500,39,4201.8677356477,4202.4668333528,4208.5144538433,4201.6799377503,4186.0373982000,4221.3144817831,4190.1154905797,4201.5503884871,4209.7609170945,4211.1280495796,4192.4416222338,4150.3573260921,4221.5086972838,4218.3375440003,,,
0.6250000000,40,4203.0538157308,4203.6767943605,4209.8491124984,4203.0219002133,4187.5737668608,4223.3174255624,4191.8150002526,4203.4693157274,4211.2884851666,4212.2969323147,4193.4891485720,4150.9483844684,4222.3343244623,4220.0199107994,,,
0.6289062500,40,4204.0085508516,4204.6456206131,4210.9057093279,4204.1216761653,4188.8713721616,4225.0559854302,4193.2683247408,4205.1452993274,4212.5573338192,4213.2112915723,4194.2936574813,4151.3167633560,4222.9201231185,4221.4741634574,,,
0.6328125000,40,4204.7388469491,4205.3794402834,4211.6917638222,4204.9841829442,4189.9366468091,4226.5349054206,4194.4815455861,4206.5844083442,4213.5749135205,4213.8783072308,4194.8621896647,4151.4689251015,4223.2743251674,4222.7087134281,,,
0.6367187500,40,4205.2525634867,4205.8851774172,4212.2158610899,4205.6154075595,4190.7768776889,4227.7603568051,4195.4616548291,4207.7930932930,4214.3488725218,4214.3060449905,4195.2024505985,4151.4120598852,4223.4057714993,4223.7323949229,,,
0.6406250000,41,4205.5584501184,4206.1705071829,4212.4874843617,4206.0222772914,4191.3999810709,4228.7396790620,4196.2164338812,4208.7780919087,4214.8868251645,4214.5031896583,4195.3226532510,4151.1539482834,4223.3237967445,4224.5543507797,,,
0.6445312500,41,4205.6660803645,4206.2437703355,4212.5168937759,4206.2125502414,4191.8142243702,4229.4810335300,4196.7543331057,4209.5464244818,4215.1963121099,4214.4788028664,4195.2314272042,4150.7028957996,4223.0381787379,4225.1839475859,,,
0.6484375000,41,4205.5858068934,4206.1138794556,4212.3150961937,4206.1947508033,4192.0280668395,4229.9931759465,4197.0843839735,4210.1054584272,4215.2849425503,4214.2422063344,4194.9378069984,4150.0677704219,4222.5591526537,4225.6307394393,,,
0.6523437500,41,4205.3287480813,4205.7902560361,4211.8938872620,4205.9781401717,4192.0502066588,4230.2854416507,4197.2161475367,4210.4630041751,4215.1606558754,4213.8029953990,4194.4512779069,4149.2581120077,4221.8974567766,4225.9044842096,,,
0.6562500000,42,4204.9067892993,4205.2827935391,4211.2658896229,4205.5726848743,4191.8897717753,4230.3678818887,4197.1596743174,4210.6273888521,4214.8319825739,4213.1711061296,4193.7818198782,4148.2842271100,4221.0643492966,4226.0151820364,,,
0.6601562500,42,4204.3325518012,4204.6017972027,4210.4444942877,4204.9889767725,4191.5564877653,4230.2513863874,4196.9254444036,4210.6074636637,4214.3081678806,4212.3568390360,4192.9398795181,4147.1571691812,4220.0715330691,4225.9730749038,,,
0.6640625000,42,4203.6192795171,4203.7578569949,4209.4436572996,4204.2380806880,4191.0606798161,4229.9476447332,4196.5242733036,4210.4125300297,4213.5990757608,4211.3707900356,4191.9362331724,4145.8885549856,4218.9309646720,4225.7885527550,,,
0.6679687500,42,4202.7806444764,4202.7616720976,4208.2775998148,4203.3313369470,4190.4130945789,4229.4689111369,4195.9671952141,4210.0522082404,4212.7149139235,4210.2237219929,4190.7817768245,4144.4902703576,4217.6546014460,4225.4719735593,,,
0.6718750000,43,4201.8305417498,4201.6239092533,4206.9605414438,4202.2801896248,4189.6246558166,4228.8276603705,4195.2653547861,4209.5363063699,4211.6659439043,4208.9264703322,4189.4873439480,4142.9742035762,4216.2542087754,4225.0334838844,,,
0.6757812500,43,4200.7829629600,4200.3551723296,4205.5065843827,4201.0961041896,4188.7062945603,4228.0362828874,4194.4299381302,4208.8747496163,4210.4623564086,4207.4899625924,4188.0636488170,4141.3521313625,4214.7413409442,4224.4829468961,,,
0.6796875000,43,4199.6519750005,4198.9660761173,4203.9297520648,4199.7905768488,4187.6689055703,4227.1069363686,4193.4721489824,4208.0775814863,4209.1143615341,4205.9253454223,4186.5213662086,4139.6357652210,4213.1274988082,4223.8300102989,,,
0.6835937500,43,4198.4517427981,4197.4673266056,4202.2440626240,4198.3751721197,4186.5233608682,4226.0515751323,4192.4032003392,4207.1549749919,4207.6323629785,4204.2441164060,4184.8712522041,4137.8368416064,4211.4243282686,4223.0842330430,,,
0.6875000000,44,4197.1965020584,4195.8696994812,4200.4634983500,4196.8615113341,4185.2804661375,4224.8820834375,4191.2342775405,4206.1171625959,4206.0270130674,4202.4581315069,4183.1241784757,4135.9671208485,4209.6436785545,4222.2551391113,,,
0.6914062500,44,4195.9004331079,4194.1838909511,4198.6018389277,4195.2611793489,4183.9508134763,4223.6104037641,4189.9764554136,4204.9742534436,4204.3090523302,4200.5794330586,4181.2910284525,4134.0382592729,4207.7974437514,4221.3521296859,,,
0.6953125000,44,4194.5774649544,4192.4203194767,4196.6724577205,4193.5855808921,4182.5445981187,4222.2485845434,4188.6405979698,4203.7360178808,4202.4890378894,4198.6199684754,4179.3825240190,4132.0616390295,4205.8972843313,4220.3843093582,,,
0.6992187500,44,4193.2410863562,4190.5890001715,4194.6882156379,4191.8458167198,4181.0715218898,4220.8087334536,4187.2372891809,4202.4117837892,4200.5771893295,4196.5913502661,4177.4091114016,4130.0482754886,4203.9544195969,4219.3603617459,,,
0.7031250000,45,4191.9042296685,4188.6995644504,4192.6615038037,4190.0526374848,4179.5408537791,4219.3029094846,4185.7768175043,4201.0105393102,4198.5835179129,4194.5047787667,4175.3809847285,4128.0088525431,4201.9796184214,4218.2885773506,,,
0.7070312500,45,4190.5792425108,4186.7613939140,4190.6043672323,4188.2164787895,4177.9616051377,4217.7430043403,4184.2691932127,4199.5412022890,4196.5181969913,4192.3711330223,4173.3082120228,4125.9538317924,4199.9833538477,4217.1770176197,,,
0.7109375000,45,4189.2779134796,4184.7837596780,4188.5285870101,4186.3475253615,4176.3427003404,4216.1406579664,4182.7241603485,4198.0129005137,4194.3919393145,4190.2011260356,4171.2008496147,4123.8935316657,4197.9759632390,4216.0336924541,,,
0.7148437500,45,4188.0115042940,4182.7758662619,4186.4456438956,4184.4557383709,4174.6930423913,4214.5072318245,4181.1511834579,4196.4350944682,4192.2161186948,4188.0053998591,4169.0689475746,4121.8381085169,4195.9676621559,4214.8666210137,,,
0.7187500000,46,4186.7907614054,4180.7467817700,4184.3665863794,4182.5508160479,4173.0214601452,4212.8538314757,4179.5594130988,4194.8174718087,4190.0025332256,4185.7945034971,4166.9224357516,4119.7974525384,4193.9683778197,4213.6837376023,,,
0.7226562500,46,4185.6259025196,4178.7053215902,4182.3018950555,4180.6421104055,4171.3366024978,4211.1913396269,4177.9576389474,4193.1696796474,4187.7629398378,4183.5787800902,4164.7709601778,4117.7810671635,4191.9874964805,4212.4927135891,,,
0.7265625000,46,4184.5265736436,4176.6599725826,4180.2614194890,4178.7385475423,4169.6468582122,4209.5304113165,4176.3542320413,4191.5010433502,4185.5086246551,4181.3682247396,4162.6237536441,4115.7979905044,4190.0336622202,4211.3008053836,,,
0.7304687500,46,4183.5017660731,4174.6188942025,4178.2543910238,4176.8485832170,4167.9603299378,4207.8814016565,4174.7570765993,4189.8203995108,4183.2502157751,4179.1723603502,4160.4895767881,4113.8567630114,4188.1147031529,4210.1147900105,,,
0.7343750000,47,4182.5596986290,4172.5899668648,4176.2894595628,4174.9801942397,4166.2848304751,4206.2542318326,4173.1735025205,4188.1360742717,4180.9977495660,4177.0001515511,4158.3767107992,4111.9654070179,4186.2376610410,4208.9409736238,,,
0.7382812500,47,4181.7077053628,4170.5808326746,4174.3747101807,4173.1408877771,4164.6278555110,4204.6582326445,4171.6102408635,4186.4559446519,4178.7608265622,4174.8599613564,4156.2929643270,4110.1313958988,4184.4088522718,4207.7852251700,,,
0.7421875000,47,4180.9521904467,4168.5988992065,4172.5176657025,4171.3377124446,4162.9965276221,4203.1020188785,4170.0734225296,4184.7874949001,4176.5486702128,4172.7595593379,4154.2456752936,4108.3616317593,4182.6339216307,4206.6530116335,,,
0.7460937500,47,4180.2986911305,4166.6513181176,4170.7253150542,4169.5772679267,4161.3975555808,4201.5934310315,4168.5686228569,4183.1378255517,4174.3700270561,4170.7062007879,4152.2417153527,4106.6624724442,4180.9179105098,4205.5494485922,,,
0.7500000000,48,4179.7520292522,4164.7449688941,4169.0041897174,4167.8657196776,4159.8372605104,4200.1395426262,4167.1009312937,4181.5136365562,4172.2329964242,4168.7067835670,4150.2875142773,4105.0398252656,4179.2653742588,4204.4793816215,,,
0.7539062500,48,4179.3164704176,4162.8864651679,4167.3604608619,4166.2088220936,4158.3216758057,4198.7466995318,4165.6750115707,4179.9212297730,4170.1449299047,4166.7680387584,4148.3891057642,4103.4992737062,4177.6805354789,4203.4474786470,,,
0.7578125000,48,4178.9957930068,4161.0821736150,4165.7999940367,4164.6119384443,4156.8566641544,4197.4205546849,4164.2951261017,4178.3665468898,4168.1124768502,4164.8966521990,4146.5521710762,4102.0461672531,4176.1674029351,4202.4582816402,,,
0.7617187500,48,4178.7932166493,4159.3382159816,4164.3283106483,4163.0800355191,4155.4479659627,4196.1660837158,4162.9651253749,4176.8552118968,4166.1417466583,4163.0992059996,4144.7820460739,4100.6856162024,4174.7297805313,4201.5161742050,,,
0.7656250000,49,4178.7112296585,4157.6604293635,4162.9504641320,4161.6176455228,4154.1011327156,4194.9875904176,4161.6884288436,4175.3925334774,4164.2384956252,4161.3819117977,4143.0836743187,4099.4223904514,4173.3711555317,4200.6252706948,,,
0.7695312500,49,4178.7514269842,4156.0542902295,4161.6709040053,4160.2288207188,4152.8213838878,4193.8887166828,4160.4680274950,4173.9834600851,4162.4082548951,4159.7502463942,4141.4615297544,4098.2607872187,4172.0945481287,4199.7892918384,,,
0.7734375000,49,4178.9144665675,4154.5248438257,4160.4934183058,4158.9171215235,4151.6134892325,4192.8724618318,4159.3065182901,4172.6325292847,4160.6563674957,4158.2086905844,4139.9195675151,4097.2045570497,4170.9024453035,4199.0115140449,,,
0.7773437500,49,4179.2001673598,4153.0766863658,4159.4211897162,4157.6856526770,4150.4817622957,4191.9412075279,4158.2061534826,4171.3438541640,4158.9879483000,4156.7607223422,4138.4612518353,4096.2569330977,4169.7968775211,4198.2948322882,,,
0.7812500000,50,4179.6076672325,4151.7140007793,4158.4569077375,4156.5371165301,4149.4301591701,4191.0967450413,4157.1688714478,4170.1211358996,4157.4077905654,4155.4090413417,4137.0896481124,4095.4207217222,4168.7795656460,4197.6418807840,,,
0.7851562500,50,4180.1355145630,4150.4405793225,4157.6028225681,4155.4738314492,4148.4623767350,4190.3403012884,4156.1962811329,4168.9676422567,4155.9202245296,4154.1558327779,4135.8074987350,4094.6983514276,4167.8519821817,4197.0550874529,,,
0.7890625000,50,4180.7816171871,4149.2597508068,4156.8606605674,4154.4976858627,4147.5818225638,4189.6725497758,4155.2896004066,4167.8861082879,4154.5289283648,4153.0028580498,4134.6171974939,4094.0917997009,4167.0152246552,4196.5365699194,,,
0.7929687500,50,4181.5430792428,4148.1742021722,4156.2314286413,4153.6100473853,4146.7914162062,4189.0935856182,4154.4495840719,4166.8785918292,4153.2367315013,4151.9513099695,4133.5206550781,4093.6024148966,4166.2697567811,4196.0879033665,,,
0.7968750000,51,4182.4160428870,4147.1857896306,4155.7152324142,4152.8116876046,4146.0933145670,4188.6028587863,4153.6764922962,4165.9463818609,4152.0455094483,4151.0015642328,4132.5191486817,4093.2307469362,4165.6151981562,4195.7099039466,,,
0.8007812500,51,4183.3956563345,4146.2954729483,4155.3112398702,4152.1027832641,4145.4887195330,4188.1990902452,4152.9701282782,4165.0900443728,4150.9562715085,4150.1530408514,4131.6132825957,4092.9765141369,4165.0503223772,4195.4025741138,,,
0.8046875000,51,4184.4762102468,4145.5034305519,4155.0178286260,4151.4830060665,4144.9778701663,4187.8802118447,4152.3299302701,4164.3096004165,4149.9694410283,4149.4043081835,4130.8031204657,4092.8387464441,4164.5732757244,4195.1652448913,,,
0.8085937500,51,4185.6513799942,4144.8092864128,4154.8328346165,4150.9516507295,4144.5602001607,4187.6433552131,4151.7550721416,4163.6047413609,4149.0851809062,4148.7533964983,4130.0884373497,4092.8160260012,4164.1818854824,4194.9968227598,,,
0.8125000000,52,4186.9144592336,4144.2123138732,4154.7537662765,4150.5077268649,4144.2345586623,4187.4848880744,4151.2445312525,4162.9749743331,4148.3035563326,4148.1981617286,4129.4689681704,4092.9066907317,4163.8739039978,4194.8960084370,,,
0.8164062500,52,4188.2585043823,4143.7115220922,4154.7778934716,4150.1499762961,4143.9994031675,4187.4004909649,4150.7971130215,4162.4196592258,4147.6244226738,4147.7365288803,4128.9445439472,4093.1089130542,4163.6471274998,4194.8614147535,,,
0.8203125000,52,4189.6763907673,4143.3056280146,4154.9022152256,4149.8768391478,4143.8529368458,4187.3852837003,4150.4114479173,4161.9379810878,4147.0471094373,4147.3665389555,4128.5150832105,4093.4206657194,4163.4994323992,4194.8915977620,,,
0.8242187500,52,4191.1608375713,4142.9929878115,4155.1233754717,4149.6864226975,4143.7932019115,4187.4340171781,4150.0859811650,4161.5289298507,4146.5700989892,4147.0862473209,4128.1804811562,4093.8396536197,4163.4287917648,4194.9850529246,,,
0.8281250000,53,4192.7044498307,4142.7715589659,4155.4375930136,4149.5765065897,4143.8181279120,4187.5413162012,4149.8189651815,4161.1913205021,4146.1908831789,4146.8935871635,4127.9404655735,4094.3632761701,4163.4332764265,4195.1402030090,,,
0.8320312500,53,4194.2997747599,4142.6389083967,4155.8406273437,4149.5445770409,4143.9255061890,4187.7019060272,4149.6084537537,4160.9238282742,4145.9060525592,4146.7862839171,4127.7944628124,4094.9886193038,4163.5109910496,4195.3553593086,,,
0.8359375000,53,4195.9393357895,4142.5922361403,4156.3277674285,4149.5878624483,4144.1128714690,4187.9107301153,4149.4522939108,4160.7249927291,4145.7115396525,4146.7618311737,4127.7414777358,4095.7124293228,4163.6599100562,4195.6286243543,,,
0.8398437500,53,4197.6156219557,4142.6283874554,4156.8938309674,4149.7033533842,4144.3773283665,4188.1629107670,4149.3481182060,4160.5931750693,4145.6028883066,4146.8174909891,4127.7799824450,4096.5310353179,4163.8776515744,4195.9577379084,,,
0.8437500000,54,4199.3210520060,4142.7438637361,4157.5331846633,4149.8878103220,4144.7154156940,4188.4535983454,4149.2933497234,4160.5265002706,4145.5754641394,4146.9502901615,4127.9078343101,4097.4402459163,4164.1612952192,4196.3399213011,,,
0.8476562500,54,4201.0479617932,4142.9348682463,4158.2398088447,4150.1377738466,4145.1230967280,4188.7778284426,4149.2852314795,4160.5228354880,4145.6245988712,4147.1570184746,4128.1222657877,4098.4352929226,4164.5073490974,4196.7718025791,,,
0.8515625000,54,4202.7886540177,4143.1974031403,4159.0074079942,4150.4495922588,4145.5958938252,4189.1305013312,4149.3208767782,4160.5798307487,4145.7457042699,4147.4342490415,4128.4199666331,4099.5108810161,4164.9118899327,4197.2494744719,,,
0.8554687500,54,4204.5355043941,4143.5273830634,4159.8295269018,4150.8194721372,4146.1291027269,4189.5065141090,4149.3973220780,4160.6949994783,4145.9343718553,4147.7783811233,4128.7972190737,4100.6613326801,4165.3707889221,4197.7686600718,,,
0.8593750000,55,4206.2810713994,4143.9207009719,4160.6996167325,4151.2435408129,4146.7179882051,4189.9009734930,4149.5115675017,4160.8657866161,4146.1864272468,4148.1856813271,4129.2500035696,4101.8807498207,4165.8798814801,4198.3248971768,,,
0.8632812500,55,4208.0181521356,4144.3732160875,4161.6110358101,4151.7178993953,4147.3579010499,4190.3093721619,4149.6606081049,4161.0895862902,4146.4978951013,4148.6523041575,4129.7740191794,4103.1631127193,4166.4349952717,4198.9136602986,,,
0.8671875000,55,4209.7397790869,4144.8807135302,4162.5570394433,4152.2386574066,4148.0443295861,4190.7276509005,4149.8414684510,4161.3637185705,4146.8648772890,4149.1743067616,4130.3646483074,4104.5023090168,4167.0318805036,4199.5304131438,,,
0.8710937500,55,4211.4392172175,4145.4389327236,4163.5308453736,4152.8019663473,4148.7729439075,4191.1521504294,4150.0512443266,4161.6854141286,4147.2834138097,4149.7477004126,4131.0169678553,4105.8921643264,4167.6661794151,4200.1706546606,,,
0.8750000000,56,4213.1100299338,4146.0437143688,4164.5258149690,4153.4040780405,4149.5396738300,4191.5795147535,4150.2871415350,4162.0518486878,4147.7494176325,4150.3685697536,4131.7258948898,4107.3265542732,4168.3335443322,4200.8300244742,,,
0.8789062500,56,4214.7462195331,4146.6912025525,4165.5356941922,4154.0414284694,4150.3408027532,4192.0066092713,4150.5464996166,4162.4602213232,4148.2587238845,4151.0332408825,4132.4864536081,4108.7996034205,4169.0298884502,4201.5044686482,,,
0.8828125000,56,4216.3423704130,4147.3779652025,4166.5547917372,4154.7107109796,4151.1730163082,4192.4304794964,4150.8267992683,4162.9078276313,4148.8072093886,4151.7384274891,4133.2940394489,4110.3058839667,4169.7516362263,4202.1903944630,,,
0.8867187500,56,4217.8937048149,4148.1009396949,4167.5779946899,4155.4088920031,4152.0333592689,4192.8483438693,4151.1256608446,4163.3920815950,4149.3908929165,4152.4812747940,4134.1445282265,4111.8404958669,4170.4958219628,4202.8847256179,,,
0.8906250000,57,4219.3960174652,4148.8572361374,4168.6006212185,4156.1331506521,4152.9191153094,4193.2576106559,4151.4408393184,4163.9104857253,4150.0059595787,4153.2592675611,4135.0341629380,4113.3989698980,4171.2599736303,4203.5848189175,,,
0.8945312500,57,4220.8455377548,4149.6439309642,4169.6182116835,4156.8807698781,4153.8276797955,4193.6559169039,4151.7702167700,4164.4605952258,4150.6487350382,4154.0700437425,4135.9592911410,4114.9770456859,4172.0418491137,4204.2882859456,,,
0.8984375000,57,4222.2388125353,4150.4579831062,4170.6263948592,4157.6490404362,4154.7564998139,4194.0411811618,4152.1117958959,4165.0400275493,4151.3156928721,4154.9112108245,4136.9161230873,4116.5704596478,4172.8391796037,4204.9928271878,,,
0.9023437500,57,4223.5726798600,4151.2963145586,4171.6209141335,4158.4352361966,4155.7031043136,4194.4116456990,4152.4637051251,4165.6465270377,4152.0035561920,4155.7802547235,4137.9006643880,4118.1748730684,4173.6495633192,4205.6961841239,,,
0.9062500000,58,4224.8443336396,4152.1559876437,4172.5977910449,4159.2366753806,4156.6651808671,4194.7658821229,4152.8242275187,4166.2780368115,4152.7094662166,4156.6745616283,4138.9088519143,4119.7859743598,4174.4705458203,4206.3962355160,,,
0.9101562500,58,4226.0514139804,4153.0343560103,4173.5535103517,4160.0508212761,4157.6406265429,4195.1027548737,4153.1918536486,4166.9327054738,4153.4311078563,4157.5914981038,4139.9367768643,4121.3996644924,4175.2997938929,4207.0911574262,,,
0.9140625000,58,4227.1920478780,4153.9290967900,4174.4851009933,4160.8753458743,4158.6275299486,4195.4213640388,4153.5653360980,4167.6087917863,4154.1666760456,4158.5284756691,4140.9808279655,4123.0121782610,4176.1352198648,4207.7795174570,,,
0.9179687500,58,4228.2648174602,4154.8381248826,4175.3900724172,4161.7081122420,4159.6241024483,4195.7209997109,4153.9437099060,4168.3045076874,4154.9146527590,4159.4829717582,4142.0376702694,4124.6200578517,4176.9749833210,4208.4602301446,,,
0.9218750000,59,4229.2687001022,4155.7594798215,4176.2662817608,4162.5470998856,4160.6286184450,4196.0011246770,4154.3262612113,4169.0179020428,4155.6734927839,4160.4525405031,4143.1041165754,4126.2200260247,4177.8174178343,4209.1324179687,,,
0.9257812500,59,4230.2030434142,4156.6912901749,4177.1118571293,4163.3903386858,4161.6394148954,4196.2613707605,4154.7124669639,4169.7468776082,4156.4413971573,4161.4348620834,4144.1770261312,4127.8088882059,4178.6609867143,4209.7952953995,,,
0.9296875000,59,4231.0675930858,4157.6318457459,4177.9252395677,4164.2358974930,4162.6549463289,4196.5015118370,4155.1019508096,4170.4893467221,4157.2163154940,4162.4278320308,4145.2533194633,4129.3835541153,4179.5043179823,4210.4481565048,,,
0.9335937500,59,4231.8625285882,4158.5797051264,4178.7052887985,4165.0819182297,4163.6738347521,4196.7213847059,4155.4944749844,4171.2434256532,4157.9961716667,4163.4296266027,4146.3300821506,4130.9411512084,4180.3462693018,4211.0904389202,,,
0.9375000000,60,4232.5884396478,4159.5337230813,4179.4513336073,4165.9266477439,4164.6948438951,4196.9207628298,4155.8899368557,4172.0075244368,4158.7791511857,4164.4386607726,4147.4046514739,4132.4791169430,4181.1859351556,4211.7217626426,,,
0.9414062500,60,4233.2462154915,4160.4929380308,4180.1630915345,4166.7684282333,4165.7167626523,4197.0992224664,4156.2883150157,4172.7802523619,4159.5638387090,4165.4534116396,4148.4746016431,4133.9951796995,4182.0225679243,4212.3418705402,,,
0.9453125000,60,4233.8368887188,4161.4563713240,4180.8404917909,4167.6056493165,4166.7382635350,4197.2560582732,4156.6895417768,4173.5601894982,4160.3490898317,4166.4721799780,4149.5376360143,4135.4872389552,4182.8554730365,4212.9504963706,,,
0.9492187500,60,4234.3615219335,4162.4228663649,4181.4835146950,4168.4367020373,4167.7578394034,4197.3902990321,4157.0933393730,4174.3456700281,4161.1336964851,4167.4929261646,4150.5914717913,4136.9532379261,4183.6839637066,4213.5472583204,,,
0.9531250000,61,4234.8212103119,4163.3910738060,4182.0921471845,4169.2599766211,4168.7738769514,4197.5008364086,4157.4990936037,4175.1347092179,4161.9160412985,4168.5132830261,4151.6338029682,4138.3911225323,4184.5074050164,4214.1316596781,,,
0.9570312500,61,4235.2172037107,4164.3595859819,4182.6664663054,4170.0739090494,4169.7848260796,4197.5866167186,4157.9058235508,4175.9251005671,4162.6939505885,4169.5307405053,4152.6623625794,4139.7989138667,4185.3253035101,4214.7031966356,,,
0.9609375000,61,4235.5510757056,4165.3271199114,4183.2067743181,4170.8770377806,4170.7893493634,4197.6467955745,4158.3122524143,4176.7146007990,4163.4648498295,4170.5429002334,4153.6750352336,4141.1748452384,4186.1373742477,4215.2614985027,,,
0.9648437500,61,4235.8248395209,4166.2926190016,4183.7136835240,4171.6680243549,4171.7863502715,4197.6807677024,4158.7169302651,4177.5010847278,4164.2261680445,4171.5476729849,4154.6699451270,4142.5174789466,4186.9435470475,4215.8064125325,,,
0.9687500000,62,4236.0409505000,4167.2552054770,4184.1880968444,4172.4456281472,4172.7748711355,4197.6880665204,4159.1183420953,4178.2825961876,4164.9758130489,4172.5433389783,4155.6454714264,4143.8257377276,4187.7439137005,4216.3379938950,,,
0.9726562500,62,4236.2022082493,4168.2140225177,4184.6311092898,4173.2086665830,4173.7539433149,4197.6682201677,4159.5149647842,4179.0572955653,4165.7125058231,4173.5284751106,4156.6001964381,4145.0988412008,4188.5386368433,4216.8564257329,,,
0.9765625000,62,4236.3116267313,4169.1680825077,4185.0439085786,4173.9559972070,4174.7224927776,4197.6206755576,4159.9052866115,4179.8233599157,4166.4358332652,4174.5018301629,4157.5328365327,4146.3361938795,4189.3278466248,4217.3619283701,,,
0.9804687500,62,4236.3723477036,4170.1162328910,4185.4277479272,4174.6865298522,4175.6793519987,4197.5448420280,4160.2878290151,4180.5789084161,4167.1460208987,4175.4622560834,4158.4422158149,4147.5372987683,4190.1115600925,4217.8547079522,,,
0.9843750000,63,4236.3876346316,4171.0572684333,4185.7840076574,4175.3992509924,4176.6233541284,4197.4402173455,4160.6611938572,4181.3220031941,4167.8435672662,4176.4087532398,4159.3273146336,4148.7017523356,4190.8896638192,4218.3349613941,,,
0.9882812500,63,4236.3609236710,4171.9901155706,4186.1142941920,4176.0932409874,4177.5534397266,4197.3065147956,4161.0241210644,4182.0507259285,4168.5289353848,4177.3405824779,4160.1873772086,4149.8293211954,4191.6619836099,4218.8029227675,,,
0.9921875000,63,4236.2958612820,4172.9139627531,4186.4204919439,4176.7676776227,4178.4687105428,4197.1437381068,4161.3755201425,4182.7632835911,4169.2024268506,4178.2573185854,4161.0220240360,4150.9200438546,4192.4284238910,4219.2589195016,,,
0.9960937500,63,4236.1962606904,4173.8282474509,4186.7047093986,4177.4218286426,4179.3684071060,4196.9522144200,4161.7144552797,4183.4580832824,4169.8642238169,4179.1587438984,4161.8313082018,4151.9742813601,4193.1891140161,4219.7034028754,,,
1.0000000000,64,4236.0659755712,4174.7325191237,4186.9691372494,4178.0550401936,4180.2518393656,4196.7326207290,4162.0401002201,4184.1337478423,4170.5144863695,4180.0446126629,4162.6156891663,4152.9926813678,4193.9444882399,4220.1369324612,,,
1.0039062500,64,4235.9087583801,4175.6262840958,4187.2158985317,4178.6667293118,4181.1183242688,4196.4860095205,4162.3516986484,4184.7890907587,4171.1534068041,4180.9144313930,4163.3759472961,4153.9760850268,4194.6952667219,4220.5601229367,,,
1.0078125000,64,4235.7281539754,4176.5089081781,4187.4469432623,4179.2563871071,4181.9671618069,4196.2138256773,4162.6485524421,4185.4230830584,4171.7811978508,4181.7673554832,4164.1130735293,4154.9254163006,4195.4423459134,4220.9735643015,,,
1.0117187500,64,4235.5274396188,4177.3795952390,4187.6639959792,4179.8235966668,4182.7976524360,4195.9179075674,4162.9300420651,4186.0348390815,4172.3980495098,4182.6022216936,4164.8281600439,4155.8415803662,4196.1866271585,4221.3777251112,,,
1.0156250000,65,4235.3096401655,4178.2374640937,4187.8685815888,4180.3680629506,4183.6091522211,4195.6004382242,4163.1956778025,4186.6236488165,4173.0041134359,4183.4177415873,4165.5223358517,4156.7254253751,4196.9288511061,4221.7728901007,,,
1.0195312500,65,4235.0776287570,4179.0817055563,4188.0621343902,4180.8896408385,4184.4011472364,4195.2638244919,4163.4451645634,4187.1890550429,4173.5995508408,4184.2128144388,4166.1967815881,4157.5778085748,4197.6695241900,4222.1591980763,,,
1.0234375000,65,4234.8342441762,4179.9117112858,4188.2461122522,4181.3883430582,4185.1733099521,4194.9105514552,4163.6784419302,4187.7309110914,4174.1846007042,4184.9867883521,4166.8527878807,4158.3997148331,4198.4089593251,4222.5367708197,,,
1.0273437500,65,4234.5823222599,4180.7270592223,4188.4220070351,4181.8643173069,4185.9255107409,4194.5430963040,4163.8956669115,4188.2493298802,4174.7595621776,4185.7395053307,4167.4917647859,4159.1923083014,4199.1473558946,4222.9058286096,,,
1.0312500000,66,4234.3245866080,4181.5273360097,4188.5912066056,4182.3177949960,4186.6577844978,4194.1639504361,4164.0971396496,4188.7444894220,4175.3246226381,4186.4711088565,4168.1151297686,4159.9568333708,4199.8848117170,4223.2666722805,,,
1.0351562500,66,4234.0634477538,4182.3118985725,4188.7547798197,4182.7490299868,4187.3702717681,4193.7757166936,4164.2832084367,4189.2163712699,4175.8795954029,4187.1817450003,4168.7241026316,4160.6944063225,4200.6212363638,4223.6195206787,,,
1.0390625000,66,4233.8008336257,4183.0797201355,4188.9133189662,4183.1582544756,4188.0631564221,4193.3811920214,4164.4541996665,4189.6645717539,4176.4237251427,4187.8713306006,4169.3195236269,4161.4058358126,4201.3562384846,4223.9643226410,,,
1.0429687500,66,4233.5381218574,4183.8293887408,4189.0669106130,4183.5456669075,4188.7365967422,4192.9833792800,4164.6103892253,4190.0882527964,4176.9556548769,4188.5394491406,4169.9017692146,4162.0915642059,4202.0890542550,4224.3006404325,,,
1.0468750000,67,4233.2761735534,4184.5592480533,4189.2152313229,4183.9114527469,4189.3906290791,4192.5854219375,4164.7520072881,4190.4862174542,4177.4735644653,4189.1853310571,4170.4707722411,4162.7517398896,4202.8185361424,4224.6276265512,,,
1.0507812500,67,4233.0154748632,4185.2676438655,4189.3577546297,4184.2558326610,4190.0250572100,4192.1904592786,4164.8792719144,4190.8571005505,4177.9754860694,4189.8078953691,4171.0261651971,4163.3864104359,4203.5432333576,4224.9441314821,,,
1.0546875000,67,4232.7563483578,4185.9531755847,4189.4940003190,4184.5791117002,4190.6393786499,4191.8014348378,4164.9924394314,4191.1996223909,4178.4597124131,4190.4058451684,4171.5675203808,4163.9957658866,4204.2615608701,4225.2489325915,,,
1.0585937500,67,4232.4991093769,4186.6148077931,4189.6236887025,4184.8816900562,4191.2327858117,4191.4209453419,4165.0918412265,4191.5127756701,4178.9250758475,4190.9777854263,4172.0945574872,4164.5802928287,4204.9719643058,4225.5409495911,,,
1.0625000000,68,4232.2440687735,4187.2517858124,4189.7467143790,4185.1640253493,4191.8042354076,4191.0511997286,4165.1778829318,4191.7958489773,4179.3709158643,4191.5223447622,4172.6071935009,4165.1407534911,4205.6729814719,4225.8193070665,,,
1.0664062500,68,4231.9914054668,4187.8634458026,4189.8629852907,4185.4265779801,4192.3525451798,4190.6940855850,4165.2510101586,4192.0483105787,4179.7967671799,4192.0383025769,4173.1054278591,4165.6780291338,4206.3631839073,4226.0832317236,,,
1.0703125000,68,4231.7410283085,4188.4490769849,4189.9722612875,4185.6697793929,4192.8764755358,4190.3512815703,4165.3116696544,4192.2696699823,4180.2020056912,4192.5247102824,4173.5891753973,4166.1929471389,4207.0410675740,4226.3319010451,,,
1.0742187500,68,4231.4925475814,4189.0079363302,4190.0741110062,4185.8940369197,4193.3747814117,4190.0243424286,4165.3602962365,4192.4594344227,4180.5857170073,4192.9809773775,4174.0581878249,4166.6862020950,4207.7049911395,4226.5643898493,,,
1.0781250000,69,4231.2453919073,4189.5393909673,4190.1680092450,4186.0997612341,4193.8462535493,4189.7147139975,4165.3973323471,4192.6171923806,4180.9468708277,4193.4069015124,4174.5121242497,4167.1584033892,4208.3532217730,4226.7797761818,,,
1.0820312500,69,4230.9989985879,4190.0430591735,4190.2534904582,4186.2873957046,4194.2897945087,4189.4236761415,4165.4232568198,4192.7427516079,4181.2846135370,4193.8026502190,4174.9507105926,4167.6101865846,4208.9840825200,4226.9773362159,,,
1.0859375000,69,4230.7529523338,4190.5188148021,4190.3302351974,4186.4574350033,4194.7045599517,4189.1522459284,4165.4385892237,4192.8362086494,4181.5983600157,4194.1687170797,4175.3738614500,4168.0422767559,4209.5961392629,4227.1566812882,,,
1.0898437500,69,4230.5070102312,4190.9666543222,4190.3980454785,4186.6104336309,4195.0901028137,4188.9011091692,4165.4438632246,4192.8978905869,4181.8875813593,4194.5058679275,4175.7816856638,4168.4554489070,4210.1883298730,4227.3177505826,,,
1.0937500000,70,4230.2610895198,4191.3865843771,4190.4567967496,4186.7470187752,4195.4463838478,4188.6706534796,4165.4396041547,4192.9282491113,4182.1515712674,4194.8150903638,4176.1744190395,4168.8504514320,4210.7599678086,4227.4607248393,,,
1.0976562500,70,4230.0153361843,4191.7786718988,4190.5064749970,4186.8679203779,4195.7735940239,4188.4611098873,4165.4263492061,4192.9278467388,4182.3895436518,4195.0975609655,4176.5523883814,4169.2279942121,4211.3106460405,4227.5859851827,,,
1.1015625000,70,4229.7702483760,4192.1432109403,4190.5472758799,4186.9740062168,4196.0719139902,4188.2727125826,4165.4046970711,4192.8974688676,4182.6010414045,4195.3546130563,4176.9160397909,4169.5888037457,4211.8401252269,4227.6941291468,,,
1.1054687500,70,4229.5267081264,4192.4808349755,4190.5796426348,4187.0662942551,4196.3413995721,4188.1057724351,4165.3753321287,4192.8382555036,4182.7863096356,4195.5876562126,4177.2659724611,4169.9336576293,4212.3482673675,4227.7859521862,,,
1.1093750000,71,4229.2858557191,4192.7924772527,4190.6041795301,4187.1459291557,4196.5820540212,4187.9606596633,4165.3389941376,4192.7517369797,4182.9463966796,4195.7980320938,4177.6029216450,4170.2633375115,4212.8350159019,4227.8623463792,,,
1.1132812500,71,4229.0488707699,4193.0792095807,4190.6214780529,4187.2141239002,4196.7940043244,4187.8377690003,4165.2964145463,4192.6397436335,4183.0830218967,4195.9868617055,4177.9276850434,4170.5785080389,4213.3003768692,4227.9241510116,,,
1.1171875000,71,4228.8167608654,4193.3420405296,4190.6319290227,4187.2720743368,4196.9776649859,4187.7375189575,4165.2482573672,4192.5042381628,4183.1983554568,4196.1549769921,4178.2410171477,4170.8795679010,4213.7443510486,4227.9720120123,,,
1.1210937500,71,4228.5902397486,4193.5817606335,4190.6355959922,4187.3208742106,4197.1338060137,4187.6603770519,4165.1950907583,4192.3471591957,4183.2948197228,4196.3030041448,4178.5435321091,4171.1665411731,4214.1668083461,4228.0062991587,,,
1.1250000000,72,4228.3697279118,4193.7989055851,4190.6322047955,4187.3614734081,4197.2635054892,4187.6068594759,4165.1373964758,4192.1703473620,4183.3749349779,4196.4315850212,4178.8356624895,4171.4390753881,4214.5673649351,4228.0271138957,,,
1.1289062500,72,4228.1554398418,4193.9938546653,4190.6212489026,4187.3947043602,4197.3680283937,4187.5774532737,4165.0756061913,4191.9755565345,4183.4411633856,4196.5416329790,4179.1176985907,4171.6965629675,4214.9453590047,4228.0343853070,,,
1.1328125000,72,4227.9474727157,4194.1670030366,4190.6021427354,4187.4213576760,4197.4486913795,4187.5724589500,4165.0101373395,4191.7644845995,4183.4957143877,4196.6344767704,4179.3898738043,4171.9383193921,4215.2999631666,4228.0279992470,,,
1.1367187500,72,4227.7458122241,4194.3188899024,4190.5743212649,4187.4422521655,4197.5067482966,4187.5918141106,4164.9413958494,4191.5387441938,4183.5403402959,4196.7117828793,4179.6524012848,4172.1636960612,4215.6303494292,4228.0078670418,,,
1.1406250000,73,4227.5502256800,4194.4501845050,4190.5372177955,4187.4582461110,4197.5432977367,4187.6349792539,4164.8697328687,4191.2997475768,4183.5762003702,4196.7752582915,4179.9053719437,4172.3720394759,4215.9357493476,4227.9738604734,,,
1.1445312500,73,4227.3600926028,4194.5615307276,4190.4901403564,4187.4701792548,4197.5592045787,4187.7009275158,4164.7953818572,4191.0485621294,4183.6038565720,4196.8262673517,4180.1485233229,4172.5625213398,4216.2153208193,4227.9256287742,,,
1.1484375000,73,4227.1742790215,4194.6533607536,4190.4321510431,4187.4787909352,4197.5550459193,4187.7882173881,4164.7184279744,4190.7858359954,4183.6233963322,4196.8655583141,4180.3810192156,4172.7339703603,4216.4679060798,4227.8624149325,,,
1.1523437500,73,4226.9911481248,4194.7258227277,4190.3620646708,4187.4846855368,4197.5311097595,4187.8950930365,4164.6388416052,4190.5118519623,4183.6346124505,4196.8932259827,4180.6014197496,4172.8848484922,4216.6918857401,4227.7830141255,,,
1.1562500000,74,4226.8087152226,4194.7788932649,4190.2786063532,4187.4883858619,4197.4874612765,4188.0195705086,4164.5565551398,4190.2266692213,4183.6371530913,4196.9088724657,4180.8079138273,4173.0134201815,4216.8852784182,4227.6859291750,,,
1.1601562500,74,4226.6248598027,4194.8126148353,4190.1806578618,4187.4904492167,4197.4240513276,4188.1595027972,4164.4715283570,4189.9302424994,4183.6305890830,4196.9117995425,4180.9987080059,4173.1180347760,4217.0460464393,4227.5696408611,,,
1.1640625000,74,4226.4374791777,4194.8273132782,4190.0674654949,4187.4915767125,4197.3408144023,4188.3126311062,4164.3837653757,4189.6224325968,4183.6144036221,4196.9010894620,4181.1723681526,4173.1973778386,4217.1724136231,4227.4328391855,,,
1.1679687500,74,4226.2445299685,4194.8236810866,4189.9387237578,4187.4926631690,4197.2377183535,4188.4766124845,4164.2932947640,4189.3029249008,4183.5879518720,4196.8755881060,4181.3279771759,4173.2505944862,4217.2630172774,4227.2745134727,,,
1.1718750000,75,4226.0440018834,4194.8027308831,4189.7945556746,4187.4947961407,4197.1147754343,4188.6489952926,4164.2001581342,4188.9711634960,4183.5504400278,4196.8339482900,4181.4651412143,4173.2773055959,4217.3168824460,4227.0939251582,,,
1.1757812500,75,4225.8339203180,4194.7657301161,4189.6354919756,4187.4992603573,4196.9720631973,4188.8271342039,4164.1044481309,4188.6264100338,4183.5009472997,4196.7748799043,4181.5839971097,4173.2776270902,4217.3333687713,4226.8905798067,,,
1.1796875000,75,4225.6124417129,4194.7142342110,4189.4625382452,4187.5075945596,4196.8097989843,4189.0080957546,4164.0064021338,4188.2679497490,4183.4384916567,4196.6975852163,4181.6853444034,4173.2522837772,4217.3122526376,4226.6643009609,,,
1.1835937500,75,4225.3780218667,4194.6502378077,4189.2773257088,4187.5216922796,4196.6284624167,4189.1886490641,4163.9065136747,4187.8953578399,4183.3621317467,4196.6021677026,4181.7708746892,4173.2027936041,4217.2539575511,4226.4154034282,,,
1.1875000000,76,4225.1295711545,4194.5763459046,4189.0822522784,4187.5438884151,4196.4289057177,4189.3654049011,4163.8055976797,4187.5086863054,4183.2710871224,4196.4897513587,4181.8433324307,4173.1315926334,4217.1597717030,4226.1448580788,,,
1.1914062500,76,4224.8665109367,4194.4958311243,4188.8805145472,4187.5769706948,4196.2123819602,4189.5350669462,4163.7047641583,4187.1084751610,4183.1648399694,4196.3621970955,4181.9064449855,4173.0419821534,4217.0318609098,4225.8543263037,,,
1.1953125000,76,4224.5887110759,4194.4125233917,4188.6760116231,4187.6240978568,4195.9804723860,4189.6946759181,4163.6053122077,4186.6956024878,4183.0431774651,4196.2215598962,4181.9646175904,4172.9379063263,4216.8730358155,4225.5460340598,,,
1.1992187500,76,4224.2963685632,4194.3306056271,4188.4731929190,4187.6886612886,4195.7349662427,4189.8417392249,4163.5086058834,4186.2710833681,4182.9061670477,4196.0696005006,4182.0225698592,4172.8236999185,4216.6864307377,4225.2225729280,,,
1.2031250000,77,4223.9899153180,4194.2544501086,4188.2769415093,4187.7741549191,4195.4777721808,4189.9742358353,4163.4159893385,4185.8359395162,4182.7541052007,4195.9076061629,4182.0851297211,4172.7039602974,4216.4753135864,4224.8867543906,,,
1.2070312500,77,4223.6699935528,4194.1885694204,4188.0925173478,4187.8840965037,4195.2108893383,4190.0905777598,4163.3287455872,4185.3911820441,4182.5874887297,4195.7365299223,4182.1572546730,4172.5835783160,4216.2431113861,4224.5415720532,,,
1.2109375000,77,4223.3374570666,4194.1376311911,4187.9254969472,4188.0219873307,4194.9363894258,4190.1896142267,4163.2480561595,4184.9378417449,4182.4070001495,4195.5572309779,4182.2441467286,4172.4678127831,4215.9935307080,4224.1902172787,,,
1.2148437500,77,4222.9933281083,4194.1064167206,4187.7816266823,4188.1912596305,4194.6563392632,4190.2706877844,4163.1749251418,4184.4769355979,4182.2134237569,4195.3705725807,4182.3512521134,4172.3622476812,4215.7305729862,4223.8360517837,,,
1.2187500000,78,4222.6386926129,4194.0996566168,4187.6665792860,4188.3951818888,4194.3726488350,4190.3336710245,4163.1100788595,4184.0093188325,4182.0074065613,4195.1773094663,4182.4840532275,4172.2725727621,4215.4583639094,4223.4824999278,,,
1.2226562500,78,4222.2745935863,4194.1217990853,4187.5856995351,4188.6367484039,4194.0869095601,4190.3789017971,4163.0538889213,4183.5354918528,4181.7890901130,4194.9779028166,4182.6477529018,4172.2042832874,4215.1809091563,4223.1329173008,,,
1.2265625000,78,4221.9020001553,4194.1768386765,4187.5438529175,4188.9186073283,4193.8003180392,4190.4070038077,4163.0063602548,4183.0555081964,4181.5577968304,4194.7724555235,4182.8470433148,4172.1624650264,4214.9019637413,4222.7905263165,,,
1.2304687500,78,4221.5218715139,4194.2682884555,4187.5454222621,4189.2430512414,4193.5137331858,4190.4186695344,4162.9671910766,4182.5690935500,4181.3120207071,4194.5608387261,4183.0860720976,4172.1517632808,4214.6250961401,4222.4584538192,,,
1.2343750000,79,4221.1352595141,4194.3992640065,4187.5943935905,4189.6120404412,4193.2278264546,4190.4145160418,4162.9358771572,4182.0759571642,4181.0498562914,4194.3429172805,4183.3685504084,4172.1764957219,4214.3538549059,4222.1398160171,,,
1.2382812500,79,4220.7433652662,4194.5725647366,4187.6944201331,4190.0272059562,4192.9432249158,4190.3950723480,4162.9118149014,4181.5761450446,4180.7697421083,4194.1187215802,4183.6978410033,4172.2407709794,4214.0918638007,4221.8377537705,,,
1.2421875000,79,4220.3474964874,4194.7906470426,4187.8487815546,4190.4898011047,4192.6605573883,4190.3608616593,4162.8943615847,4181.0702378530,4180.4711587259,4193.8884778623,4184.0768961565,4172.3484806792,4213.8427360104,4221.5553568103,,,
1.2460937500,79,4219.9489326058,4195.0554695320,4188.0602280878,4191.0006080729,4192.3803793297,4190.3124784328,4162.8828338095,4180.5592680218,4180.1548893687,4193.6525123034,4184.5080402448,4172.5031198079,4213.6098322930,4221.2954896065,,,
1.2500000000,80,4219.5487586193,4195.3682864253,4188.3307674082,4191.5598309735,4192.1030212757,4190.2505756079,4162.8764578641,4180.0443845066,4179.8226822973,4193.4111017630,4184.9927041298,4172.7074961019,4213.3959808506,4221.0605855903,,,
1.2539062500,80,4219.1477519090,4195.7295044320,4188.6614844706,4192.1670121771,4191.8284364697,4190.1757540813,4162.8743117532,4179.5264417893,4179.4765159997,4193.1643423539,4185.5312442736,4172.9634547850,4213.2032794884,4220.8524851897,,,
1.2578125000,80,4218.7463802168,4196.1386752505,4189.0524649564,4192.8209946929,4191.5561089551,4190.0884207407,4162.8752983303,4179.0057333127,4179.1179057294,4192.9120776794,4186.1229179863,4173.2717344594,4213.0330367986,4220.6723656572,,,
1.2617187500,80,4218.3448984867,4196.5946030104,4189.5028303616,4193.5199283261,4191.2850462876,4189.9886974170,4162.8781610033,4178.4819910126,4178.7476221304,4192.6538980608,4186.7659910531,4173.6319921945,4212.8858339691,4220.5207663506,,,
1.2656250000,81,4217.9434682212,4197.0954764937,4190.0108340213,4194.2613031071,4191.0138509920,4189.8764175240,4162.8815231249,4177.9545999626,4178.3658802257,4192.3892007272,4187.4578922603,4174.0429475702,4212.7616508150,4220.3976761974,,,
1.2695312500,81,4217.5422283893,4197.6389480270,4190.5739631724,4195.0420042748,4190.7408572920,4189.7511882847,4162.8839264911,4177.4228623584,4177.9727569668,4192.1172958615,4188.1953417012,4174.5025606027,4212.6600122064,4220.3026447485,,,
1.2734375000,81,4217.1413177236,4198.2221595076,4191.1890375982,4195.8584027818,4190.4643248819,4189.6124779773,4162.8838668741,4176.8861723976,4177.5685278880,4191.8375533396,4188.9744470925,4175.0081898174,4212.5801448579,4220.2349048617,,,
1.2773437500,81,4216.7409032685,4198.8417798012,4191.8523304714,4196.7064909092,4190.1826736997,4189.4597152486,4162.8798471850,4176.3440872971,4177.1537766036,4191.5495853113,4189.7908132999,4175.5567238382,4212.5211446823,4220.1935178568,,,
1.2812500000,82,4216.3412472349,4199.4941011511,4192.5597189958,4197.5820385448,4189.8947119287,4189.2924193107,4162.8704602035,4175.7963709044,4176.7293401123,4191.2534257896,4190.6396909075,4176.1446916361,4212.4821271212,4220.1775337299,,,
1.2851562500,82,4215.9427751161,4200.1751657762,4193.3068250642,4198.4807179778,4189.5997806351,4189.1103754817,4162.8544790824,4175.2430654493,4176.2962345898,4190.9496227924,4191.5161247996,4176.7683372913,4212.4623018298,4220.1861119146,,,
1.2890625000,82,4215.5460741336,4200.8808432029,4194.0890867958,4199.3981567393,4189.2977502916,4188.9138287355,4162.8309108600,4174.6845574307,4175.8556372513,4190.6391624889,4192.4150288532,4177.4236337622,4212.4609260239,4220.2185290079,,,
1.2929687500,82,4215.1517899263,4201.6068123850,4194.9017376745,4200.3299203047,4188.9888621177,4188.7036222910,4162.7989811028,4174.1215547550,4175.4088824424,4190.3232257818,4193.3311500654,4178.1062304010,4212.4771505419,4220.2740467453,,,
1.2968750000,83,4214.7604659899,4202.3484915807,4195.7397354096,4201.2714680410,4188.6734807251,4188.4811999444,4162.7580594524,4173.5549444331,4174.9573795577,4190.0028886541,4194.2589672110,4178.8113723746,4212.5098366194,4220.3517016016,,,
1.3007812500,83,4214.3724243193,4203.1010226514,4196.5977267381,4202.2181446033,4188.3518758844,4188.2484415762,4162.7075760970,4172.9856121776,4174.5024203494,4189.6789358239,4195.1926339822,4179.5338673027,4212.5574482367,4220.4501422815,,,
1.3046875000,83,4213.9877758368,4203.8593977590,4197.4701219555,4203.1652536644,4188.0241517604,4188.0073924223,4162.6469914468,4172.4143732227,4174.0449689357,4189.3519089625,4196.1260735738,4180.2681714422,4212.6180998391,4220.5676308499,,,
1.3085937500,83,4213.6065711255,4204.6187223058,4198.3512839716,4204.1082122309,4187.6903790409,4187.7600203696,4162.5758549686,4171.8421096491,4173.5856129047,4189.0223690482,4197.0532456756,4181.0086078401,4212.6897673967,4220.7022300275,,,
1.3125000000,84,4213.2289997694,4205.3745000499,4199.2357472232,4205.0427258556,4187.3508749475,4187.5081310860,4162.4939318224,4171.2700560137,4173.1248003821,4188.6912001013,4197.9684787974,4181.7496354073,4212.7705745738,4220.8520705079,,,
1.3164062500,84,4212.8554976012,4206.1227822336,4200.1183354734,4205.9648977037,4187.0064774123,4187.2534767776,4162.4013208036,4170.7000392054,4172.6633008796,4188.3597298200,4198.8666817779,4182.4860266077,4212.8589976514,4221.0155170315,,,
1.3203125000,84,4212.4866744087,4206.8600859684,4200.9940936362,4206.8712137201,4186.6586491522,4186.9979701786,4162.2984805803,4170.1344773652,4172.2026354461,4188.0295518824,4199.7432959707,4183.2128458395,4212.9538577070,4221.1911023277,,,
1.3242187500,84,4212.1230962521,4207.5831273481,4201.8580691576,4207.7584167858,4186.3093473833,4186.7438477071,4162.1861407178,4169.5760915929,4171.7451814143,4187.7021456994,4200.5940120645,4183.9252439011,4213.0540957762,4221.3772548831,,,
1.3281250000,85,4211.7650530119,4208.2885347923,4202.7050872207,4208.6233471389,4185.9607393305,4186.4936605783,4162.0651563517,4169.0274768109,4171.2938278461,4187.3785447396,4201.4144410605,4184.6182083051,4213.1584728810,4221.5719966659,,,
1.3320312500,85,4211.4124431710,4208.9727161684,4203.5296729594,4209.4628420088,4185.6149301612,4186.2500854215,4161.9363987650,4168.4907715991,4170.8513423569,4187.0592731814,4202.1999653799,4185.2864371236,4213.2653861255,4221.7728117401,,,
1.3359375000,85,4211.0648231300,4209.6319418203,4204.3261733608,4210.2737449733,4185.2738432000,4186.0156615623,4161.8007334832,4167.9675999526,4170.4198154172,4186.7445729127,4202.9458641289,4185.9244140773,4213.3729017956,4221.9767652867,,,
1.3398437500,85,4210.7215675589,4210.2625630016,4205.0890015016,4211.0530038268,4184.9392809875,4185.7926048219,4161.6590687630,4167.4592918904,4170.0005206814,4186.4347420733,4203.6476061176,4186.5266266782,4213.4789492845,4222.1807807775,,,
1.3437500000,86,4210.3820393976,4210.8612184445,4205.8128616417,4211.7977843407,4184.6130825106,4185.5827888724,4161.5124188590,4166.9672409263,4169.5942713101,4186.1303583534,4204.3010953332,4187.0877890203,4213.5815199748,4222.3818909212,,,
1.3476562500,86,4210.0456907020,4211.4249232211,4206.4928492763,4212.5055297876,4184.2972471767,4185.3878675285,4161.3619326728,4166.4932032688,4169.2020330129,4185.8322796474,4204.9027158035,4187.6029553952,4213.6787407245,4222.5773252623,,,
1.3515625000,86,4209.7120730056,4211.9510296406,4207.1244135961,4213.1739441344,4183.9939339762,4185.2094218768,4161.2088687957,4166.0393940904,4168.8253940728,4185.5414834661,4205.4491908144,4188.0675051581,4213.7688049186,4222.7644321313,,,
1.3554687500,86,4209.3807826454,4212.4371252017,4207.7032518595,4213.8009305756,4183.7053292012,4185.0490162200,4161.0545300311,4165.6083513367,4168.4666011306,4185.2588939103,4205.9374050706,4188.4770649600,4213.8498494982,4222.9405459793,,,
1.3593750000,87,4209.0513865191,4212.8809521420,4208.2252345054,4214.3845388920,4183.4334551746,4184.9081262090,4160.9001907752,4165.2026595651,4168.1281714257,4184.9853148129,4206.3643465711,4188.8274606252,4213.9198936901,4223.1029317109,,,
1.3632812500,87,4208.7233762428,4213.2804056125,4208.6864328774,4214.9229588013,4183.1800252651,4184.7879964054,4160.7470520456,4164.8246962341,4167.8123751165,4184.7214964371,4206.7272251115,4189.1147604148,4213.9769003030,4223.2488709415,,,
1.3671875000,87,4208.3961881449,4213.6336172295,4209.0832567751,4215.4145643499,4182.9464230633,4184.6895261467,4160.5962383040,4164.4765390169,4167.5209458711,4184.4682804271,4207.0237024904,4189.3354129948,4214.0189299481,4223.3758549755,,,
1.3710937500,87,4208.0692940240,4213.9390807340,4209.4126396370,4215.8579869141,4182.7338096622,4184.6132477853,4160.4488149208,4164.1600621179,4167.2551887500,4184.2267247577,4207.2521048769,4189.4864248008,4214.0442954215,4223.4817772449,,,
1.3750000000,88,4207.7423194182,4214.1957496076,4209.6721760068,4216.2521795471,4182.5432835948,4184.5593835223,4160.3057836174,4163.8771257756,4167.0163709171,4183.9981141178,4207.4115084132,4189.5654909170,4214.0516314305,4223.5650159768,,,
1.3789062500,88,4207.4151199287,4214.4030501958,4209.8601454775,4216.5964405030,4182.3759864741,4184.5279124188,4160.1680326316,4163.6297154191,4166.8061239006,4183.7838183675,4207.5016714610,4189.5710167433,4214.0398643658,4223.6243669040,,,
1.3828125000,88,4207.0877706918,4214.5608015661,4209.9754300092,4216.8903899718,4182.2330876824,4184.5185915708,4160.0362634996,4163.4199391258,4166.6266433307,4183.5850553004,4207.5228731825,4189.5020353186,4214.0081360870,4223.6588774504,,,
1.3867187500,88,4206.7604792467,4214.6690795271,4210.0173867639,4217.1339226699,4182.1156619792,4184.5309401968,4159.9109401911,4163.2498883417,4166.4806378318,4183.4026791752,4207.4757475128,4189.3580805123,4213.9557446345,4223.6676803675,,,
1.3906250000,89,4206.4334714398,4214.7280762180,4209.9857347676,4217.3271637546,4182.0245354791,4184.5642525576,4159.7922872956,4163.1214343330,4166.3710939911,4183.2370954260,4207.3611626358,4189.1390725821,4213.8821153952,4223.6498968769,,,
1.3945312500,89,4206.1069025757,4214.7379938036,4209.8804714339,4217.4704363454,4181.9601813425,4184.6176983205,4159.6803278499,4163.0360417526,4166.3009428298,4183.0883134057,4207.1801416611,4188.8452306673,4213.7867711897,4223.6046148426,,,
1.3984375000,89,4205.7808273391,4214.6989969597,4209.7018062587,4217.5642359575,4181.9227026437,4184.6904937654,4159.5749320019,4162.9946509291,4166.2727059548,4182.9560679245,4206.9338066335,4188.4770037250,4213.6692813057,4223.5309103876,,,
1.4023437500,89,4205.4552391372,4214.6112418821,4209.4501082792,4217.6092164555,4181.9118800582,4184.7820465309,4159.4758523152,4162.9976473054,4166.2882208425,4182.8399197326,4206.6233526527,4188.0350259456,4213.5292181808,4223.4278900305,,,
1.4062500000,90,4205.1301607683,4214.4749805932,4209.1258868095,4217.6062005801,4181.9272264679,4184.8919688539,4159.3827388016,4163.0449144853,4166.3485500590,4182.7392833732,4206.2500728733,4187.5201192580,4213.3661721197,4223.2947486280,,,
1.4101562500,90,4204.8057373464,4214.2907004869,4208.7298231552,4217.5562123240,4181.9680052769,4185.0199386437,4159.2951441629,4163.1359504910,4166.4540986072,4182.6533971751,4205.8154300829,4186.9333500920,4213.1798384974,4223.1308357067,,,
1.4140625000,90,4204.4822756611,4214.0592297815,4208.2628421846,4217.4605036585,4182.0332215314,4185.1655015428,4159.2125389743,4163.2700091291,4166.6048227731,4182.5813053350,4205.3211342661,4186.2761132156,4212.9701340995,4222.9357112174,,,
1.4179687500,90,4204.1602109015,4213.7817557835,4207.7261907152,4217.3205480577,4182.1216340870,4185.3279556129,4159.1343526962,4163.4462134993,4166.8003378651,4182.5219265466,4204.7691841340,4185.5501999779,4212.7372770977,4222.7091768952,,,
1.4218750000,91,4203.8400365901,4213.4597611364,4207.1214959076,4217.1380022121,4182.2318214176,4185.5063976061,4159.0600381574,4163.6635940210,4167.0398127436,4182.4742243319,4204.1618678574,4184.7578247234,4212.4817949345,4222.4512889060,,,
1.4257812500,91,4203.5222536821,4213.0949357907,4206.4507955291,4216.9146622717,4182.3622783701,4185.6998837709,4158.9891354828,4163.9210441771,4167.3217255573,4182.4374081099,4203.5017512313,4183.9016111074,4212.2044725231,4222.1623655464,,,
1.4296875000,91,4203.2073613594,4212.6891245810,4205.7165417273,4216.6524362594,4182.5114849082,4185.9075692072,4158.9213065907,4164.2172452617,4167.6436954603,4182.4110500469,4202.7916752727,4182.9845573276,4211.9062766592,4221.8429909161,,,
1.4335937500,91,4202.8958647862,4212.2443254187,4204.9215800851,4216.3533333371,4182.6779086746,4186.1287063125,4158.8563280285,4164.5506383856,4168.0025801327,4182.3950423318,4202.0347531660,4182.0100003901,4211.5882790003,4221.4940025153,,,
1.4375000000,92,4202.5882609210,4211.7627033528,4204.0691043302,4216.0194592878,4182.8599576832,4186.3624890133,4158.7940500994,4164.9194822608,4168.3948534767,4182.3894110054,4201.2343385294,4180.9815870477,4211.2515749258,4221.1164550262,,,
1.4414062500,92,4202.2849858834,4211.2465716351,4203.1625872241,4215.6530076247,4183.0559332472,4186.6078416252,4158.7343392851,4165.3219508010,4168.8170854800,4182.3940726682,4200.3939502954,4179.9032394028,4210.8971914897,4220.7115643821,,,
1.4453125000,92,4201.9863407254,4210.6983203886,4202.2056936546,4215.2562368123,4183.2640200204,4186.8632877050,4158.6770223947,4165.7561733757,4169.2662773535,4182.4086310869,4199.5171683599,4178.7790936010,4210.5260014160,4220.2806418852,,,
1.4492187500,92,4201.6924369367,4210.1203206591,4201.2021990544,4214.8314311376,4183.4823119005,4187.1269750930,4158.6218513081,4166.2201629031,4169.7399019664,4182.4322836382,4198.6075394597,4177.6134110231,4210.1386911796,4219.8250328556,,,
1.4531250000,93,4201.4032060075,4209.5148600432,4200.1559547027,4214.3808627971,4183.7088507254,4187.3968276428,4158.5685025065,4166.7116808244,4170.2356877125,4182.4638734300,4197.6685411820,4176.4105031597,4209.7358341732,4219.3460841726,,,
1.4570312500,93,4201.1184856328,4208.8841519412,4199.0709304576,4213.9067870594,4183.9416642726,4187.6707214465,4158.5166092432,4167.2281536627,4170.7513342433,4182.5020756744,4196.7036266344,4175.1747251978,4209.3180689522,4218.8451633565,,,
1.4609375000,93,4200.8381354671,4208.2304090451,4197.9513101623,4213.4114827442,4184.1788076299,4187.9465923397,4158.4658038773,4167.7667187388,4171.2843646788,4182.5456368704,4195.7163136375,4173.9105450967,4208.8863007369,4218.3237198026,,,
1.4648437500,93,4200.5620951923,4207.5559222633,4196.8015551296,4212.8973051243,4184.4184111969,4188.2224521685,4158.4157426227,4168.3243736729,4171.8321956973,4182.5935370304,4194.7102340267,4172.6226204392,4208.4418030206,4217.7833348828,,,
1.4687500000,94,4200.2903279726,4206.8630839841,4195.6263543711,4212.3666951470,4184.6587249940,4188.4963588672,4158.3661029378,4168.8981291147,4172.3923317329,4182.6449884993,4193.6890757448,4171.3157924911,4207.9861468780,4217.2257001622,,,
1.4726562500,94,4200.0226807659,4206.1543430292,4194.4304595883,4211.8221182545,4184.8981445675,4188.7664005752,4158.3165690939,4169.4850710578,4172.9624832794,4182.6993165143,4192.6564327923,4169.9949637559,4207.5209966887,4216.6525123058,,,
1.4765625000,94,4199.7587613808,4205.4321302362,4193.2184886936,4211.2659612531,4185.1352124087,4189.0307201219,4158.2668285888,4170.0823096231,4173.5404443675,4182.7558752301,4191.6156557633,4168.6649082410,4207.0478908145,4216.0653377921,,,
1.4804687500,94,4199.4979153801,4204.6987986991,4191.9947950958,4210.7004429906,4185.3685977685,4189.2875644852,4158.2165846423,4170.6868691553,4174.1237202171,4182.8141212336,4190.5697933086,4167.3301011020,4206.5681123193,4215.4655188746,,,
1.4843750000,95,4199.2393027032,4203.9565854434,4190.7634365758,4210.1275761295,4185.5970601814,4189.5353289172,4158.1655682510,4171.2956096566,4174.7090788806,4182.8738071227,4189.5216322654,4165.9946255084,4206.0826722895,4214.8541527775,,,
1.4882812500,95,4198.9820027720,4203.2075734569,4189.5282029897,4209.5491810444,4185.8194028866,4189.7725776393,4158.1135323033,4171.9052456689,4175.2923009490,4182.9351178944,4188.4737633964,4164.6621578459,4205.5923569624,4214.2321254164,,,
1.4921875000,95,4198.7250711808,4202.4536476474,4188.2926392578,4208.9669286887,4186.0344280966,4189.9980406799,4158.0602333364,4172.5124692428,4175.8683506389,4182.9985890766,4187.4285991414,4163.3359983413,4205.0977857592,4213.6001633578,,,
1.4960937500,95,4198.4675206383,4201.6964706473,4187.0600325062,4208.3823842504,4186.2409132025,4190.2105935385,4158.0054278292,4173.1141298630,4176.4319941547,4183.0648093889,4186.3883421655,4162.0191164151,4204.5994697884,4212.9588806017,,,
1.5000000000,96,4198.2082573721,4200.9375102641,4185.8333766382,4207.7970334431,4186.4376248364,4190.4092250523,4157.9489015533,4173.7074045680,4176.9786381432,4183.1340856807,4185.3549716135,4160.7141973784,4204.0978865810,4212.3088124859,,,
1.5039062500,96,4197.9460323208,4200.1781205853,4184.6153473444,4207.2122917160,4186.6233749070,4190.5929998379,4157.8905173398,4174.2899081098,4177.5050127777,4183.2062914316,4184.3303146411,4159.4236892361,4203.5935708716,4211.6504373970,,,
1.5078125000,96,4197.6794537180,4199.4196431517,4183.4083103574,4206.6295110363,4186.7971077602,4190.7610271139,4157.8302437548,4174.8597262174,4178.0094081263,4183.2809940662,4183.3162092884,4158.1498498234,4203.0871924163,4210.9841945362,,,
1.5117187500,96,4197.4070646423,4198.6634827176,4182.2143606439,4206.0499970135,4186.9579945676,4190.9124496352,4157.7681406717,4175.4153821419,4178.4914478178,4183.3577558335,4182.3146930439,4156.8947871345,4202.5795850557,4210.3105095225,,,
1.5156250000,97,4197.1274414865,4197.9111259963,4181.0353693162,4205.4750336368,4187.1055019416,4191.0464598960,4157.7043130777,4175.9557586368,4178.9516414371,4183.4363841571,4181.3281175574,4155.6604773813,4202.0717121927,4209.6298288284,,,
1.5195312500,97,4196.8392538593,4197.1641013780,4179.8730140112,4204.9059012299,4187.2394061930,4191.1623389669,4157.6388663934,4176.4799989368,4179.3910023991,4183.5169641176,4180.3591161924,4154.4487492399,4201.5645868829,4208.9426465463,,,
1.5234375000,97,4196.5412599274,4196.4239115381,4178.7287909808,4204.3438779859,4187.3597493742,4191.2595036622,4157.5718918414,4176.9874108879,4179.8108522496,4183.5996924172,4179.4104295989,4153.2612452652,4201.0591940762,4208.2495078358,,,
1.5273437500,97,4196.2322684576,4195.6919889102,4177.6040341002,4203.7902306841,4187.4667659922,4191.3375494079,4157.5034905683,4177.4774012555,4180.2127317062,4183.6846942008,4178.4846843489,4152.0993995172,4200.5564763353,4207.5510015879,,,
1.5312500000,98,4195.9111305714,4194.9697087081,4176.4999678875,4203.2462116121,4187.5608257587,4191.3962906356,4157.4338241858,4177.9494620728,4180.5982719589,4183.7720045213,4177.5842590921,4150.9644753680,4200.0574242400,4206.8477828337,,,
1.5351562500,98,4195.5768007085,4194.2584524385,4175.4177899212,4202.7130758527,4187.6424238003,4191.4358128507,4157.3631660736,4178.4032067194,4180.9689629465,4183.8617389424,4176.7113187003,4149.8576713178,4199.5632498893,4206.1406552460,,,
1.5390625000,98,4195.2284463318,4193.5596770535,4174.3587397217,4202.1921144099,4187.7122117666,4191.4565454434,4157.2919287897,4178.8384191171,4181.3258776028,4183.9543035029,4175.8679754243,4148.7802458475,4199.0755483027,4205.4306918475,,,
1.5429687500,98,4194.8655375830,4192.8749392962,4173.3241044809,4201.6846766452,4187.7710255767,4191.4593421648,4157.2206572527,4179.2550632880,4181.6694685827,4184.0504510681,4175.0564385998,4147.7335825535,4198.5963279342,4204.7193213327,,,
1.5468750000,99,4194.4878511613,4192.2058536214,4172.3151478798,4201.1921508659,4187.8198563820,4191.4455312624,4157.1499921595,4179.6532260308,4181.9995302469,4184.1511098356,4174.2790215880,4146.7191441580,4198.1278525570,4204.0083094573,,,
1.5507812500,99,4194.0953799580,4191.5540029862,4171.3330016843,4200.7158962758,4187.8597407042,4191.4168925712,4157.0806129893,4180.0330230344,4182.3153532826,4184.2570910094,4173.5379831014,4145.7383327040,4197.6723512657,4203.2996248833,,,
1.5546875000,99,4193.6882086599,4190.9208488525,4170.3785904319,4200.2571573407,4187.8915980556,4191.3755500457,4157.0131706167,4180.3945427689,4182.6160254711,4184.3688859646,4172.8353060730,4144.7923361659,4197.2317424843,4202.5952540945,,,
1.5585937500,99,4193.2664384458,4190.3076853746,4169.4526403184,4199.8170071247,4187.9160884124,4191.3238209950,4156.9482270389,4180.7378889151,4182.9007677314,4184.4867118482,4172.1725646863,4143.8820550360,4196.8075137866,4201.8970670473,,,
1.5625000000,100,4192.8301947556,4189.7156491200,4168.5557599216,4199.3963402262,4187.9335550507,4191.2640888322,4156.8862238841,4181.0633035876,4183.1691770795,4184.6107725548,4171.5509480781,4143.0081411200,4196.4007852947,4201.2067918638,,,
1.5664062500,100,4192.3796805039,4189.1457546300,4167.6885285945,4198.9958970262,4187.9440606634,4191.1987361839,4156.8274868458,4181.3712821906,4183.4213072684,4184.7415370929,4170.9713780750,4142.1710952575,4196.0124577830,4200.5260703323,,,
1.5703125000,100,4191.9152251183,4188.5989201517,4166.8515473190,4198.6162946358,4187.9474904531,4191.1301318209,4156.7722589239,4181.6626160252,4183.6576004974,4184.8798986876,4170.4346402214,4141.3713673849,4195.6433512668,4199.8565468387,,,
1.5742187500,100,4191.4373060615,4188.0759628317,4166.0454474369,4198.2580537453,4187.9436939517,4191.0606364368,4156.7207503125,4181.9383509465,4183.8787285164,4185.0271919831,4169.9414898685,4140.6094389262,4195.2942970943,4199.1999636596,,,
1.5781250000,101,4190.9465300069,4187.5775530113,4165.2708593022,4197.9216112279,4187.9326125715,4190.9925681050,4156.6731802258,4182.1996559683,4184.0854314328,4185.1850193857,4169.4926772453,4139.8858532165,4194.9661350639,4198.5582081620,,,
1.5820312500,101,4190.4435851939,4187.1041480775,4164.5283597253,4197.6073139911,4187.9143383523,4190.9280983743,4156.6297878037,4182.4476416611,4184.2784383994,4185.3549113685,4169.0888705549,4139.2011750581,4194.6596090644,4197.9332713658,,,
1.5859375000,101,4189.9292054114,4186.6559540038,4163.8184379633,4197.3154052504,4187.8891052051,4190.8691291368,4156.5908181625,4182.6832249889,4184.4584774929,4185.5380079731,4168.7305530567,4138.5559215865,4194.3752538609,4197.3271581301,,,
1.5898437500,101,4189.4041756003,4186.2329435926,4163.1415050652,4197.0460132251,4187.8572486932,4190.8172081378,4156.5565048732,4182.9070941838,4184.6263182719,4185.7348852751,4168.4179714622,4137.9505089883,4194.1133591150,4196.7418094126,,,
1.5937500000,102,4188.8693793438,4185.8349271960,4162.4979403873,4196.7991427611,4187.8191607719,4190.7735063160,4156.5270624253,4183.1197620548,4184.7827683198,4185.9455154950,4168.1511553598,4137.3852258906,4193.8740292141,4196.1790629843,,,
1.5976562500,102,4188.3258558030,4185.4616472954,4161.8881350277,4196.5746711181,4187.7752524064,4190.7388839123,4156.5026952101,4183.3216778065,4184.9285296077,4186.1693623567,4167.9299938296,4136.8602342303,4193.6573127470,4195.6406587742,,,
1.6015625000,102,4187.7748176987,4185.1128509928,4161.3124869825,4196.3723499514,4187.7259243425,4190.7140262040,4156.4836187018,4183.5133433438,4185.0639204310,4186.4055817936,4167.7543186843,4136.3755862491,4193.4633265038,4195.1282659827,,,
1.6054687500,102,4187.2176103120,4184.7883088110,4160.7713468954,4196.1918107829,4187.6715358665,4190.6995538036,4156.4700770540,4183.6953730200,4185.1886280743,4186.6532092886,4167.6239331543,4135.9312331834,4193.2922925025,4194.6434878685,,,
1.6093750000,103,4186.6556148461,4184.4877788088,4160.2649364028,4196.0325688813,4187.6123499438,4190.6960257795,4156.4623484164,4183.8684790580,4185.3016260459,4186.9112567551,4167.5385625571,4135.5270096928,4193.1444577719,4194.1878178431,,,
1.6132812500,103,4186.0901116837,4184.2109351910,4159.7932611807,4195.8940254558,4187.5484358485,4190.7038102049,4156.4607382792,4184.0334037140,4185.4012959685,4187.1787221148,4167.4977453515,4135.1625941398,4193.0199180557,4193.7625506068,,,
1.6171875000,103,4185.5221700768,4183.9573035982,4159.3560709614,4195.7754764746,4187.4795569260,4190.7228574886,4156.4655565864,4184.1908336419,4185.4858064706,4187.4545243794,4167.5007239107,4134.8374619704,4192.9184272135,4193.3686854424,,,
1.6210937500,103,4184.9526481899,4183.7262502609,4158.9529129817,4195.6761327054,4187.4051105801,4190.7525043252,4156.4770777540,4184.3413352990,4185.5536912695,4187.7374003013,4167.5464104371,4134.5508592267,4192.8393073455,4193.0068784429,,,
1.6250000000,104,4184.3823128469,4183.5170345723,4158.5832538990,4195.5951404258,4187.3241664667,4190.7914697780,4156.4954979794,4184.4853326503,4185.6043638747,4188.0258374350,4167.6334536860,4134.3018109066,4192.7815146094,4192.6774739039,,,
1.6289062500,104,4183.8120070555,4183.3288903063,4158.2465988515,4195.5315902152,4187.2355931146,4190.8380945336,4156.5209110124,4184.6231230336,4185.6383136260,4188.3180990308,4167.7603623231,4134.0891600845,4192.7438169023,4192.3805952132,,,
1.6328125000,104,4183.2427806062,4183.1610888950,4157.9425549723,4195.4845188489,4187.1382144905,4190.8907052266,4156.5533150734,4184.7549204982,4185.6569422793,4188.6123346013,4167.9256195740,4133.9116296121,4192.7249912601,4192.1162505347,,,
1.6367187500,104,4182.6759417813,4183.0129564243,4157.6708314583,4195.4529220477,4187.0309266313,4190.9479033067,4156.5926460820,4184.8809190264,4185.6622033703,4188.9067175063,4168.1277490156,4133.7679009386,4192.7239623138,4191.8844160689,,,
1.6406250000,105,4182.1130364357,4182.8838431362,4157.4311962155,4195.4357839678,4186.9127384580,4191.0086448498,4156.6388171048,4185.0013557101,4185.6562490239,4189.1995378827,4168.3653199175,4133.6566946953,4192.7398400300,4191.6850746275,,,
1.6445312500,105,4181.5557871775,4182.7730812482,4157.2234091311,4195.4321063391,4186.7827525146,4191.0721583095,4156.6917368126,4185.1165057320,4185.6411332342,4189.4892106508,4168.6368811973,4133.5768055529,4192.7718416735,4191.5181871325,,,
1.6484375000,105,4181.0060336357,4182.6799945094,4157.0471536675,4195.4409205610,4186.6401304739,4191.1378792749,4156.7512893213,4185.2265351930,4185.6184626856,4189.7742207630,4168.9408284110,4133.5270417476,4192.8191301746,4191.3835916963,,,
1.6523437500,105,4180.4657014452,4182.6039717333,4156.9020053450,4195.4612934653,4186.4840774687,4191.2054717262,4156.8172936755,4185.3312918970,4185.5890348091,4190.0530794840,4169.2752947956,4133.5061169725,4192.8806955466,4191.2809028037,,,
1.6562500000,106,4179.9367925128,4182.5445305709,4156.7874546456,4195.4923423280,4186.3138488351,4191.2748105874,4156.8894809129,4185.4302169025,4185.5527091904,4190.3243217916,4169.6381748056,4133.5126100916,4192.9553930940,4191.2095069564,,,
1.6601562500,106,4179.4213628722,4182.5013043659,4156.7029385239,4195.5332430983,4186.1287655610,4191.3458358004,4156.9674970274,4185.5224044655,4185.5086011026,4190.5864698217,4170.0272429086,4133.5450129099,4193.0420751318,4191.1686371173,,,
1.6640625000,106,4178.9214601272,4182.4739564593,4156.6478209204,4195.5832045769,4185.9282282650,4191.4183507432,4157.0509151205,4185.6067010371,4185.4554480922,4190.8378862368,4170.4402330386,4133.6017871321,4193.1396601412,4191.1574236685,,,
1.6679687500,106,4178.4390201779,4182.4620690335,4156.6213189624,4195.6414102055,4185.7117290321,4191.4918846760,4157.1392498697,4185.6817873323,4185.3919797646,4191.0765582364,4170.8748053162,4133.6813736061,4193.2470681462,4191.1748624867,,,
1.6718750000,107,4177.9757535308,4182.4650557156,4156.6224257975,4195.7069592087,4185.4788659341,4191.5656793122,4157.2319786620,4185.7462609244,4185.3171819777,4191.2999448672,4171.3284283769,4133.7821593279,4193.3630656778,4191.2197208927,,,
1.6757812500,107,4177.5330644710,4182.4821219594,4156.6498848664,4195.7788406253,4185.2293620115,4191.6387810738,4157.3285709308,4185.7987437476,4185.2304149637,4191.5050032531,4171.7982692576,4133.9024462373,4193.4861273719,4191.2904513507,,,
1.6796875000,107,4177.1120286969,4182.5122622682,4156.7022263667,4195.8559459527,4184.9630783028,4191.7101716479,4157.4285186580,4185.8380024018,4185.1314149032,4191.6884026156,4172.2811814683,4134.0404654179,4193.6144156540,4191.3851775963,,,
1.6835937500,107,4176.7134193960,4182.5542638635,4156.7778278728,4195.9370936277,4184.6800040526,4191.7788663713,4157.5313557610,4185.8630300165,4185.0202392779,4191.8468223395,4172.7738179164,4134.1944449161,4193.7459077958,4191.5017659522,,,
1.6875000000,108,4176.3377463220,4182.6066961162,4156.8749563589,4196.0210333976,4184.3802259930,4191.8439383887,4157.6366561811,4185.8730338090,4184.8971827291,4191.9771892026,4173.2728173896,4134.3626984453,4193.8786114045,4191.6379407570,,,
1.6914062500,108,4175.9852801120,4182.6678995759,4156.9917889825,4196.1064281300,4184.0639086298,4191.9044787951,4157.7440116175,4185.8673185138,4184.7626247372,4192.0767583828,4173.7749681907,4134.5436831153,4194.0107580689,4191.7913851971,,,
1.6953125000,108,4175.6560678911,4182.7360143205,4157.1264407787,4196.1918431371,4183.7313067865,4191.9595637795,4157.8530071893,4185.8451429677,4184.6167829606,4192.1430528979,4174.2772649046,4134.7359915729,4194.1408740758,4191.9597906182,,,
1.6992187500,108,4175.3499626395,4182.8090606578,4157.2770077856,4196.2757621450,4183.3827761744,4192.0082979823,4157.9632155191,4185.8056523236,4184.4594415739,4192.1737558640,4174.7768476857,4134.9382909350,4194.2677043954,4192.1408533675,,,
1.7031250000,109,4175.0666709023,4182.8850284271,4157.4416008323,4196.3566111683,4183.0187263391,4192.0499195847,4158.0742102073,4185.7479056050,4184.2897810546,4192.1666368732,4175.2708944270,4135.1492599392,4194.3900617058,4192.3322413181,,,
1.7070312500,109,4174.8058055615,4182.9619210070,4157.6183522478,4196.4327701832,4182.6395175700,4192.0838936376,4158.1855860909,4185.6709577772,4184.1064150307,4192.1195449875,4175.7565517246,4135.3675732550,4194.5067013154,4192.5315576648,,,
1.7109375000,109,4174.5669291577,4183.0377458542,4157.8054104382,4196.5025814854,4182.2453835945,4192.1099455314,4158.2969772559,4185.5739672602,4183.9076523313,4192.0304636429,4176.2309434432,4135.5919455666,4194.6162840828,4192.7363276156,,,
1.7148437500,109,4174.3495761231,4183.1104847098,4158.0009490114,4196.5643706869,4181.8364808552,4192.1280449499,4158.4080707337,4185.4563054538,4183.6918656281,4191.8975830825,4176.6912327542,4135.8212064508,4194.7174293727,4192.9440236140,,,
1.7187500000,110,4174.1532472186,4183.1780784583,4158.2031972090,4196.6164774261,4181.4130896860,4192.1383852328,4158.5186146594,4185.3176293055,4183.4577625901,4191.7193244177,4177.1346698736,4136.0543564970,4194.8088044195,4193.1521216207,,,
1.7226562500,110,4173.9773796775,4183.2384389866,4158.4104736973,4196.6572781923,4180.9758726611,4192.1413901496,4158.6284148201,4185.1578810200,4183.2044180375,4191.4942822926,4177.5585678558,4136.2905713309,4194.8891798964,4193.3581585876,,,
1.7265625000,110,4173.8213083716,4183.2894842750,4158.6212030369,4196.6851881348,4180.5260310715,4192.1377354532,4158.7373154162,4184.9772188362,4182.9311031691,4191.2211277895,4177.9602181638,4136.5291620318,4194.9574242741,4193.5597631974,,,
1.7304687500,110,4173.6842396094,4183.3291916996,4158.8339113231,4196.6986455121,4180.0652540527,4192.1283391596,4158.8451748008,4184.7759340818,4182.6370972449,4190.8985703105,4178.3368300415,4136.7695331217,4195.0124757921,4193.7546590947,,,
1.7343750000,111,4173.5652537070,4183.3556616293,4159.0472143036,4196.6960985944,4179.5954916442,4192.1142813660,4158.9518588953,4184.5544260712,4182.3216621191,4190.5254600253,4178.6855806652,4137.0111755983,4195.0533598140,4193.9406648457,,,
1.7382812500,111,4173.4633363232,4183.3671725525,4159.2598157285,4196.6760169149,4179.1186998183,4192.0966602214,4159.0572679352,4184.3132700255,4181.9842083527,4190.1010240041,4179.0037857532,4137.2536985660,4195.0792867852,4194.1157145296,,,
1.7421875000,111,4173.3774221934,4183.3622065540,4159.4705263352,4196.6369293001,4178.6367139397,4192.0764466137,4159.1613917438,4184.0533497241,4181.6245198798,4189.6251338603,4179.2891069053,4137.4968698063,4195.0898001436,4194.2778994628,,,
1.7460937500,111,4173.3064285246,4183.3394386238,4159.6782977658,4196.5774644943,4178.1513033825,4192.0544223459,4159.2643708332,4183.7759802136,4181.2428701660,4189.0984699067,4179.5396778036,4137.7406267001,4195.0848913643,4194.4255038600,,,
1.7500000000,112,4173.2492592127,4183.2976985187,4159.8822464993,4196.4963634141,4177.6643254180,4192.0312494206,4159.3665326705,4183.4829450823,4180.8399714870,4188.5224981300,4179.7540776606,4137.9850349297,4195.0649949454,4194.5569953523,,,
1.7539062500,112,4173.2047706060,4183.2359141387,4160.0816355934,4196.3924529439,4177.1778308357,4192.0076385099,4159.4683760373,4183.1764160935,4180.4168411670,4187.8992750075,4179.9311673635,4138.2301984427,4195.0308265800,4194.6709465736,,,
1.7578125000,112,4173.1717023277,4183.1530405177,4160.2758001634,4196.2645995296,4176.6940202093,4191.9845152073,4159.5704963702,4182.8587858870,4179.9747154173,4187.2311776194,4180.0698739507,4138.4761441490,4194.9831114845,4194.7659019669,,,
1.7617187500,112,4173.1485940449,4183.0479879707,4160.4640396208,4196.1116725779,4176.2150678297,4191.9630792869,4159.6734776748,4182.5324903728,4179.5150578371,4186.5206799163,4180.1690293992,4138.7227143046,4194.9223218965,4194.8402442892,,,
1.7656250000,113,4173.1337301606,4182.9195846531,4160.6455329551,4195.9325399313,4175.7429301839,4191.9447245119,4159.7777999868,4182.1998972152,4179.0395828267,4185.7702599297,4180.2273407604,4138.9695042445,4194.8485554458,4194.8921335356,,,
1.7695312500,113,4173.1251623007,4182.7666162292,4160.8193386183,4195.7261051237,4175.2792664760,4191.9308805053,4159.8838034738,4181.8632913748,4178.5501702060,4184.9824560947,4180.2435087217,4139.2158801420,4194.7616244332,4194.9195692231,,,
1.7734375000,113,4173.1208293090,4182.5879553584,4160.9845039830,4195.4913840594,4174.8255201804,4191.9228832795,4159.9917141129,4181.5249291828,4178.0486347021,4184.1600251777,4180.2164439909,4139.4610858680,4194.6613194021,4194.9205662585,,,
1.7773437500,113,4173.1187316596,4182.3827365317,4161.1402422182,4195.2276002365,4174.3831044025,4191.9219489383,4160.1016990565,4181.1870991700,4177.5364632889,4183.3061097991,4180.1454841671,4139.7044005234,4194.5477174799,4194.8933683069,,,
1.7812500000,114,4173.1170722518,4182.1504921656,4161.2860807504,4194.9342607523,4173.9535691093,4191.9292464983,4160.2139094162,4180.8521408802,4177.0147187225,4182.4243161833,4180.0305151525,4139.9452706724,4194.4213841153,4194.8366005754,,,
1.7851562500,114,4173.1142958816,4181.8911855789,4161.4218946405,4194.6111819610,4173.5386405630,4191.9459979369,4160.3284869035,4180.5224144610,4176.4842447746,4181.5186431909,4179.8719543247,4140.1833506128,4194.2833808858,4194.7493080869,,,
1.7890625000,114,4173.1090325168,4181.6051451122,4161.5478126579,4194.2584656129,4173.1401015450,4191.9735171205,4160.4455390512,4180.2002476390,4175.9461220975,4180.5932816499,4179.6706278006,4140.4184427977,4194.1351011408,4194.6309019329,,,
1.7929687500,114,4173.1000115164,4181.2929602876,4161.6640648581,4193.8764556954,4172.7595766061,4192.0131437638,4160.5651050213,4179.8878912314,4175.4021426917,4179.6523810483,4179.4276262354,4140.6503965939,4193.9780411865,4194.4810813889,,,
1.7968750000,115,4173.0860158007,4180.9554020988,4161.7708625224,4193.4657070453,4172.3983422361,4192.0661087476,4160.6871331313,4179.5874952965,4174.8550377309,4178.6999074850,4179.1442221497,4140.8790445781,4193.8136292728,4194.2997838521,,,
1.8007812500,115,4173.0658977851,4180.5933913273,4161.8683562739,4193.0269757638,4172.0572638473,4192.1334265209,4160.8114774996,4179.3010978060,4174.3083401706,4177.7396620090,4178.8218815956,4141.1042177926,4193.6431811613,4194.0871686166,,,
1.8046875000,115,4173.0386328962,4180.2080012633,4161.9566574909,4192.5612237131,4171.7368803334,4192.2158992122,4160.9379067487,4179.0306125244,4173.7659811433,4176.7754198773,4178.4623410207,4141.3258198939,4193.4679722670,4193.8436149055,,,
1.8085937500,115,4173.0033784822,4179.8004624474,4162.0358863303,4192.0696266240,4171.4375604104,4192.3142322879,4161.0661146703,4178.7778087822,4173.2318625372,4175.8110594083,4178.0676842886,4141.5439001741,4193.2893580751,4193.5697254858,,,
1.8125000000,116,4172.9595281408,4179.3721403194,4162.1062256892,4191.5535798882,4171.1596098942,4192.4291536156,4161.1957298388,4178.5442802647,4172.7096221466,4174.8505605841,4177.6403622574,4141.7586735321,4193.1088587928,4193.2663433925,,,
1.8164062500,116,4172.9067637447,4178.9244853689,4162.1679688306,4191.0146967501,4170.9032695098,4192.5614000505,4161.3263244860,4178.3313978636,4172.2026090288,4173.8978988103,4177.1831432489,4141.9704906240,4192.9281535574,4192.9345718768,,,
1.8203125000,116,4172.8450973865,4178.4589831562,4162.2215426816,4190.4547935876,4170.6686561322,4192.7115535701,4161.4574207558,4178.1402426140,4171.7139034081,4172.9569776934,4176.6990285969,4142.1798086303,4192.7489952229,4192.5757627716,,,
1.8242187500,116,4172.7748870848,4177.9771255470,4162.2675002588,4189.8758621894,4170.4557338688,4192.8798553233,4161.5884964682,4177.9715348938,4171.2462512309,4172.0316782118,4176.1911736928,4142.3871997608,4192.5731153418,4192.1914581549,,,
1.8281250000,117,4172.6968146206,4177.4804058720,4162.3064979072,4189.2800332610,4170.2643358766,4193.0661366098,4161.7189996532,4177.8256065867,4170.8019489056,4171.1259661584,4175.6628356299,4142.5933944868,4192.4021885922,4191.7833135163,,,
1.8320312500,117,4172.6118304616,4176.9703364329,4162.3392808442,4188.6695371768,4170.0941947925,4193.2699069796,4161.8483767662,4177.7024607056,4170.3828010533,4170.2439514172,4175.1173524645,4142.7993369049,4192.2378680477,4191.3530457733,,,
1.8359375000,117,4172.5210882397,4176.4484793841,4162.3666879003,4188.0466685213,4169.9449419444,4193.4905500278,4161.9761051040,4177.6019048556,4169.9902259498,4169.3898255010,4174.5581405922,4143.0062228338,4192.0818296412,4190.9024220352,,,
1.8398437500,117,4172.4258845361,4175.9164608356,4162.3896592708,4187.4137542162,4169.8160822094,4193.7275400222,4162.1017118511,4177.5236733184,4169.6254618905,4168.5676731404,4173.9886743775,4143.2154854895,4191.9357329859,4190.4332578564,,,
1.8437500000,118,4172.3275927215,4175.3759317822,4162.4092130720,4186.7731162503,4169.7069863980,4193.9805962352,4162.2247712517,4177.4674435342,4169.2897410601,4167.7812282670,4173.4124155397,4143.4287048906,4191.8010615199,4189.9473773938,,,
1.8476562500,118,4172.2275737931,4174.8284769533,4162.4263754479,4186.1270277224,4169.6169350055,4194.2497231412,4162.3448897516,4177.4327346174,4168.9843224989,4167.0336867053,4172.8327058098,4143.6474612258,4191.6789187680,4189.4465328772,,,
1.8515625000,118,4172.1270818875,4174.2755347145,4162.4421013257,4185.4776848588,4169.5452144411,4194.5351345397,4162.4616983718,4177.4187862385,4168.7103895938,4166.3276681253,4172.2526934265,4143.8732099280,4191.5699317836,4188.9323524977,,,
1.8554687500,118,4172.0272182282,4173.7184159972,4162.4572638023,4184.8272284666,4169.4912404129,4194.8371106146,4162.5748653018,4177.4245532202,4168.4689232457,4165.6653440001,4171.6753754229,4144.1072749259,4191.4743727360,4188.4064075959,,,
1.8593750000,119,4171.9289726118,4173.1584563411,4162.4727663755,4184.1778235976,4169.4546703037,4195.1558600149,4162.6841266561,4177.4488688305,4168.2606714318,4165.0486604739,4171.1037742307,4144.3509974399,4191.3924722813,4187.8704174659,,,
1.8632812500,119,4171.8333279287,4172.5972346963,4162.4897421935,4183.5317624909,4169.4354602637,4195.4914393975,4162.7893187981,4177.4906904930,4168.0862420539,4164.4795393863,4170.5411646613,4144.6059686004,4191.3247630343,4187.3264904291,,,
1.8671875000,119,4171.7413485228,4172.0367307281,4162.5097212916,4182.8915321378,4169.4338292056,4195.8437385456,4162.8903933374,4177.5492668681,4167.9462281472,4163.9599685948,4169.9912104673,4144.8742019834,4191.2722660162,4186.7772417436,,,
1.8710937500,119,4171.6541803803,4171.4793278843,4162.5346536304,4182.2598058788,4169.4501268376,4196.2125034813,4162.9874134129,4177.6241250097,4167.8412330110,4163.4919751688,4169.4579175474,4145.1581322329,4191.2364435357,4186.2257000791,,,
1.8750000000,120,4171.5729570447,4170.9276758829,4162.5667761453,4181.6393653677,4169.4846592798,4196.5973628214,4163.0805531364,4177.7149191322,4167.7717339081,4163.0775468840,4168.9454325955,4145.4604397880,4191.2190015083,4185.6750661436,,,
1.8789062500,120,4171.4986753560,4170.3845131019,4162.6084200450,4181.0330006974,4169.5375605805,4196.9978410653,4163.1701235488,4177.8212796626,4167.7378477206,4162.7185704085,4168.4578118136,4145.7838112324,4191.2217025445,4185.1284884894,,,
1.8828125000,120,4171.4321208635,4169.8525480085,4162.6618763979,4180.4434416395,4169.6087718627,4197.4133665648,4163.2566179560,4177.9427683262,4167.7391416138,4162.4167931026,4167.9988745519,4146.1307648167,4191.2462892461,4184.5889829177,,,
1.8867187500,120,4171.3738733274,4169.3344250432,4162.7293631979,4179.8733377298,4169.6981134234,4197.8432894411,4163.3407326853,4178.0789208667,4167.7746117421,4162.1737557138,4167.5721580206,4146.5035929043,4191.2944827127,4184.0594839176,,,
1.8906250000,121,4171.3243563016,4168.8327298600,4162.8130428331,4179.3252599061,4169.8053692307,4198.2869100736,4163.4233170899,4178.2292668898,4167.8428535520,4161.9906498105,4167.1808986431,4146.9043713171,4191.3679449417,4183.5429062456,,,
1.8945312500,121,4171.2838705409,4168.3499759291,4162.9150071233,4178.8016811143,4169.9303031537,4198.7435002645,4163.5052482691,4178.3932426653,4167.9423363267,4161.8681249699,4166.8279621604,4147.3349450006,4191.4681413469,4183.0421019355,,,
1.8984375000,121,4171.2525829773,4167.8885496262,4163.0371912812,4178.3049184766,4170.0725892749,4199.2122998481,4163.5872767568,4178.5700240163,4168.0716398042,4161.8061398033,4166.5157170087,4147.7968429028,4191.5961515643,4182.5597008731,,,
1.9023437500,121,4171.2304915555,4167.4506312444,4163.1812446685,4177.8370589206,4170.2317068455,4199.6924912189,4163.6699083193,4178.7583890738,4168.2295374941,4161.8039462956,4166.2459148013,4148.2911523890,4191.7525348867,4182.0979202109,,,
1.9062500000,122,4171.2174013179,4167.0381237101,4163.3484151805,4177.3999057576,4170.4068660645,4200.1831724224,4163.7533629037,4178.9566953201,4168.4148952366,4161.8602096926,4166.0196442976,4148.8184229274,4191.9373064319,4181.6584404526,,,
1.9101562500,122,4171.2129225582,4166.6526076693,4163.5394850333,4176.9949650590,4170.5969897003,4200.6833491037,4163.8376067285,4179.1629530007,4168.6264455258,4161.9731642416,4165.8373704746,4149.3786431283,4192.1499811181,4181.2423848731,,,
1.9140625000,122,4171.2164758277,4166.2953227493,4163.7547617700,4176.6234651055,4170.8007231577,4201.1919435419,4163.9224197767,4179.3749039159,4168.8625514897,4162.1406759715,4165.6990184375,4149.9712824003,4192.3895989717,4180.8503721478,,,
1.9179687500,122,4171.2272909187,4165.9671699286,4163.9941108968,4176.2863957382,4171.0164291323,4201.7077903042,4164.0074557789,4179.5900385253,4169.1210625912,4162.3601587220,4165.6040572255,4150.5953627936,4192.6546975806,4180.4825916725,,,
1.9218750000,123,4171.2444088083,4165.6687371406,4164.2570197333,4175.9845593891,4171.2421549448,4202.2295828996,4164.0922717884,4179.8055703245,4169.3992936737,4162.6284134043,4165.5515716670,4151.2495410775,4192.9432856161,4180.1388761845,,,
