Time:128Hz,Epoch,Channel 1,Channel 2,Channel 3,Channel 4,Channel 5,Channel 6,Channel 7,Channel 8,Channel 9,Channel 10,Channel 11,Channel 12,Channel 13,Channel 14,Event Id,Event Date,Event Duration
0.0000000000,0,4144.8715820313,4145.0000000000,4133.3334960938,4124.4873046875,4157.0512695313,4156.2822265625,4163.5898437500,4172.0512695313,4155.5126953125,4150.3847656250,4144.1025390625,4142.3076171875,4156.5385742188,4120.8974609375,,,
0.0078125000,0,4145.8974609375,4148.5898437500,4129.8715820313,4125.7690429688,4154.7436523438,4155.2563476563,4163.5898437500,4173.3334960938,4148.3334960938,4157.9487304688,4145.5126953125,4139.8715820313,4152.4360351563,4114.3588867188,,,
0.0156250000,0,4149.4873046875,4158.0771484375,4134.8715820313,4128.4614257813,4162.5639648438,4158.4614257813,4165.1284179688,4169.7436523438,4158.9741210938,4173.8461914063,4155.5126953125,4147.9487304688,4155.1284179688,4125.2563476563,,,
0.0234375000,0,4151.4101562500,4153.5898437500,4133.7177734375,4122.6923828125,4162.8203125000,4159.8715820313,4169.2309570313,4170.5126953125,4162.9487304688,4170.8974609375,4147.0512695313,4149.2309570313,4151.4101562500,4121.9228515625,,,
0.0312500000,1,4140.6411132813,4157.5639648438,4134.6152343750,4126.6665039063,4160.3847656250,4159.4873046875,4162.3076171875,4171.0258789063,4159.7436523438,4165.5126953125,4149.6152343750,4145.3847656250,4162.0512695313,4114.8715820313,,,
0.0390625000,1,4139.1025390625,4149.6152343750,4128.7177734375,4121.1538085938,4148.4614257813,4150.0000000000,4169.6152343750,4172.4360351563,4156.6665039063,4162.8203125000,4146.6665039063,4144.6152343750,4159.6152343750,4114.3588867188,,,
0.0468750000,1,4141.7949218750,4153.4614257813,4132.3076171875,4126.9228515625,4157.1796875000,4162.6923828125,4160.8974609375,4169.2309570313,4165.6411132813,4170.7690429688,4147.5639648438,4146.2822265625,4150.2563476563,4115.3847656250,,,
0.0546875000,1,4139.4873046875,4152.9487304688,4131.0258789063,4126.0258789063,4154.4873046875,4159.4873046875,4163.9741210938,4173.5898437500,4158.3334960938,4161.5385742188,4147.4360351563,4143.3334960938,4144.1025390625,4109.1025390625,,,
0.0625000000,2,4133.7177734375,4153.8461914063,4132.8203125000,4127.9487304688,4157.3076171875,4155.5126953125,4161.4101562500,4172.3076171875,4166.9228515625,4167.3076171875,4150.1284179688,4142.4360351563,4154.7436523438,4119.6152343750,,,
0.0703125000,2,4141.7949218750,4155.0000000000,4134.6152343750,4131.4101562500,4160.8974609375,4156.5385742188,4163.7177734375,4174.1025390625,4170.0000000000,4169.1025390625,4139.3588867188,4142.3076171875,4149.1025390625,4119.3588867188,,,
0.0781250000,2,4149.8715820313,4158.9741210938,4138.9741210938,4136.6665039063,4162.0512695313,4165.2563476563,4163.7177734375,4171.5385742188,4168.5898437500,4170.5126953125,4137.4360351563,4144.7436523438,4145.6411132813,4121.6665039063,,,
0.0859375000,2,4152.1796875000,4153.5898437500,4137.4360351563,4133.0771484375,4159.1025390625,4168.9741210938,4167.4360351563,4169.7436523438,4166.2822265625,4168.9741210938,4136.5385742188,4147.1796875000,4150.5126953125,4120.0000000000,,,
0.0937500000,3,4154.4873046875,4161.9228515625,4143.0771484375,4135.6411132813,4165.6411132813,4171.6665039063,4166.6665039063,4172.5639648438,4170.1284179688,4167.3076171875,4146.9228515625,4149.3588867188,4164.6152343750,4118.9741210938,,,
0.1015625000,3,4156.4101562500,4162.5639648438,4143.2050781250,4134.8715820313,4164.1025390625,4168.2050781250,4169.2309570313,4173.2050781250,4177.0512695313,4170.7690429688,4149.6152343750,4151.9228515625,4166.1538085938,4123.8461914063,,,
0.1093750000,3,4158.4614257813,4158.2050781250,4142.4360351563,4135.0000000000,4162.8203125000,4172.0512695313,4168.8461914063,4170.6411132813,4173.7177734375,4174.8715820313,4140.0000000000,4154.1025390625,4155.7690429688,4125.8974609375,,,
0.1171875000,3,4159.2309570313,4167.3076171875,4149.1025390625,4139.3588867188,4169.1025390625,4176.1538085938,4166.6665039063,4171.0258789063,4174.1025390625,4175.8974609375,4144.6152343750,4158.7177734375,4160.8974609375,4127.3076171875,,,
0.1250000000,4,4166.5385742188,4165.1284179688,4154.2309570313,4138.9741210938,4175.3847656250,4178.0771484375,4170.5126953125,4172.8203125000,4186.2822265625,4178.0771484375,4149.4873046875,4159.6152343750,4168.0771484375,4131.0258789063,,,
0.1328125000,4,4168.2050781250,4163.3334960938,4157.6923828125,4142.6923828125,4180.1284179688,4183.9741210938,4164.8715820313,4171.1538085938,4186.2822265625,4180.3847656250,4147.6923828125,4155.8974609375,4165.5126953125,4130.2563476563,,,
0.1406250000,4,4156.4101562500,4156.4101562500,4140.6411132813,4130.6411132813,4162.5639648438,4168.2050781250,4169.7436523438,4170.3847656250,4160.1284179688,4160.6411132813,4133.5898437500,4146.2822265625,4147.0512695313,4118.8461914063,,,
0.1484375000,4,4145.6411132813,4152.4360351563,4128.5898437500,4121.7949218750,4160.8974609375,4166.2822265625,4165.1284179688,4164.8715820313,4163.4614257813,4163.5898437500,4129.3588867188,4142.4360351563,4143.3334960938,4117.8203125000,,,
0.1562500000,5,4158.0771484375,4151.5385742188,4134.7436523438,4122.5639648438,4165.2563476563,4170.1284179688,4168.0771484375,4171.7949218750,4173.0771484375,4171.2822265625,4137.1796875000,4149.4873046875,4156.1538085938,4120.8974609375,,,
0.1640625000,5,4162.6923828125,4157.6923828125,4148.4614257813,4132.0512695313,4166.1538085938,4169.4873046875,4165.8974609375,4171.2822265625,4178.0771484375,4173.5898437500,4151.1538085938,4156.1538085938,4172.1796875000,4136.9228515625,,,
0.1718750000,5,4159.7436523438,4149.3588867188,4144.7436523438,4132.4360351563,4157.1796875000,4158.5898437500,4166.2822265625,4168.4614257813,4162.6923828125,4162.3076171875,4139.1025390625,4151.0258789063,4153.5898437500,4132.0512695313,,,
0.1796875000,5,4158.8461914063,4155.7690429688,4145.6411132813,4140.7690429688,4160.2563476563,4158.4614257813,4161.0258789063,4169.6152343750,4160.2563476563,4163.9741210938,4151.7949218750,4150.3847656250,4148.9741210938,4129.7436523438,,,
0.1875000000,6,4160.2563476563,4155.8974609375,4146.4101562500,4139.8715820313,4154.3588867188,4151.9228515625,4169.6152343750,4173.3334960938,4165.3847656250,4164.2309570313,4157.9487304688,4154.7436523438,4156.1538085938,4131.0258789063,,,
0.1953125000,6,4156.1538085938,4158.2050781250,4153.8461914063,4147.3076171875,4161.9228515625,4158.3334960938,4162.1796875000,4166.4101562500,4165.6411132813,4165.3847656250,4150.2563476563,4155.1284179688,4165.6411132813,4127.6923828125,,,
0.2031250000,6,4155.0000000000,4152.1796875000,4152.0512695313,4142.8203125000,4162.0512695313,4160.5126953125,4163.3334960938,4167.8203125000,4153.9741210938,4164.8715820313,4149.2309570313,4153.4614257813,4166.4101562500,4122.0512695313,,,
0.2109375000,6,4156.7949218750,4151.0258789063,4145.8974609375,4138.5898437500,4161.6665039063,4167.0512695313,4165.0000000000,4173.2050781250,4166.7949218750,4177.5639648438,4158.9741210938,4154.3588867188,4159.4873046875,4130.5126953125,,,
0.2187500000,7,4159.7436523438,4162.3076171875,4150.5126953125,4148.3334960938,4172.4360351563,4176.5385742188,4167.6923828125,4173.7177734375,4180.8974609375,4182.1796875000,4164.2309570313,4158.2050781250,4155.7690429688,4132.1796875000,,,
0.2265625000,7,4159.1025390625,4158.5898437500,4149.4873046875,4144.4873046875,4172.4360351563,4172.9487304688,4172.0512695313,4170.0000000000,4171.5385742188,4172.5639648438,4158.0771484375,4154.8715820313,4165.1284179688,4124.6152343750,,,
0.2343750000,7,4152.0512695313,4144.7436523438,4139.7436523438,4131.7949218750,4162.9487304688,4166.0258789063,4166.2822265625,4169.7436523438,4161.6665039063,4166.9228515625,4146.1538085938,4147.1796875000,4156.1538085938,4117.6923828125,,,
0.2421875000,7,4153.7177734375,4155.8974609375,4144.2309570313,4136.6665039063,4162.9487304688,4167.0512695313,4164.7436523438,4176.5385742188,4162.5639648438,4164.4873046875,4151.2822265625,4148.8461914063,4145.5126953125,4122.0512695313,,,
0.2500000000,8,4159.3588867188,4168.2050781250,4152.9487304688,4145.5126953125,4171.6665039063,4172.3076171875,4167.6923828125,4172.6923828125,4174.4873046875,4175.0000000000,4166.7949218750,4155.3847656250,4160.3847656250,4133.7177734375,,,
0.2578125000,8,4162.1796875000,4151.7949218750,4146.0258789063,4133.5898437500,4164.7436523438,4164.6152343750,4168.3334960938,4169.2309570313,4160.7690429688,4166.7949218750,4148.7177734375,4149.6152343750,4147.3076171875,4126.0258789063,,,
0.2656250000,8,4155.8974609375,4152.8203125000,4144.6152343750,4130.3847656250,4155.2563476563,4155.7690429688,4158.5898437500,4170.1284179688,4147.0512695313,4155.2563476563,4139.4873046875,4145.8974609375,4141.4101562500,4128.8461914063,,,
0.2734375000,8,4156.6665039063,4156.0258789063,4146.2822265625,4135.6411132813,4152.4360351563,4150.5126953125,4164.6152343750,4173.0771484375,4148.0771484375,4156.4101562500,4145.6411132813,4151.0258789063,4152.9487304688,4133.5898437500,,,
0.2812500000,9,4158.3334960938,4157.5639648438,4150.1284179688,4139.8715820313,4165.2563476563,4160.0000000000,4160.5126953125,4171.6665039063,4159.2309570313,4165.2563476563,4148.0771484375,4149.2309570313,4159.8715820313,4133.5898437500,,,
0.2890625000,9,4160.2563476563,4145.8974609375,4139.8715820313,4122.3076171875,4155.7690429688,4152.1796875000,4168.8461914063,4174.3588867188,4152.8203125000,4150.7690429688,4129.3588867188,4139.4873046875,4149.8715820313,4127.8203125000,,,
0.2968750000,9,4155.8974609375,4150.7690429688,4140.3847656250,4128.3334960938,4156.9228515625,4156.7949218750,4161.9228515625,4170.0000000000,4157.0512695313,4160.5126953125,4137.0512695313,4141.2822265625,4158.0771484375,4129.4873046875,,,
0.3046875000,9,4155.3847656250,4161.9228515625,4146.5385742188,4141.0258789063,4161.2822265625,4160.1284179688,4160.5126953125,4171.1538085938,4159.3588867188,4170.0000000000,4161.0258789063,4151.7949218750,4161.4101562500,4126.4101562500,,,
0.3125000000,10,4155.5126953125,4165.5126953125,4151.7949218750,4137.8203125000,4165.5126953125,4164.2309570313,4163.5898437500,4169.3588867188,4171.7949218750,4177.1796875000,4176.6665039063,4155.0000000000,4168.9741210938,4136.1538085938,,,
0.3203125000,10,4157.1796875000,4153.2050781250,4143.3334960938,4126.1538085938,4166.0258789063,4166.1538085938,4171.4101562500,4172.3076171875,4174.4873046875,4179.4873046875,4161.2822265625,4149.3588867188,4161.4101562500,4133.9741210938,,,
0.3281250000,10,4156.1538085938,4157.6923828125,4140.2563476563,4132.1796875000,4168.0771484375,4164.7436523438,4167.4360351563,4174.8715820313,4167.5639648438,4176.0258789063,4160.1284179688,4146.7949218750,4156.0258789063,4132.8203125000,,,
0.3359375000,10,4157.0512695313,4159.6152343750,4141.4101562500,4132.9487304688,4163.4614257813,4159.7436523438,4167.8203125000,4170.3847656250,4167.4360351563,4175.5126953125,4165.1284179688,4145.3847656250,4158.3334960938,4136.9228515625,,,
0.3437500000,11,4155.8974609375,4157.0512695313,4142.3076171875,4129.1025390625,4167.1796875000,4169.1025390625,4166.5385742188,4169.6152343750,4171.7949218750,4182.3076171875,4166.7949218750,4147.6923828125,4162.4360351563,4129.8715820313,,,
0.3515625000,11,4149.2309570313,4151.4101562500,4131.7949218750,4120.5126953125,4163.7177734375,4168.2050781250,4169.4873046875,4175.3847656250,4168.0771484375,4178.0771484375,4166.2822265625,4148.0771484375,4165.7690429688,4119.4873046875,,,
0.3593750000,11,4148.4614257813,4144.2309570313,4122.5639648438,4113.7177734375,4157.0512695313,4160.7690429688,4170.2563476563,4172.9487304688,4162.6923828125,4166.2822265625,4145.7690429688,4137.6923828125,4148.4614257813,4115.3847656250,,,
0.3671875000,11,4147.3076171875,4152.8203125000,4131.9228515625,4121.0258789063,4164.4873046875,4166.2822265625,4161.6665039063,4170.1284179688,4158.8461914063,4161.5385742188,4134.1025390625,4132.9487304688,4129.8715820313,4113.9741210938,,,
0.3750000000,12,4146.2822265625,4151.6665039063,4129.6152343750,4114.4873046875,4160.2563476563,4163.9741210938,4170.6411132813,4176.1538085938,4154.3588867188,4155.5126953125,4133.8461914063,4134.7436523438,4136.2822265625,4112.9487304688,,,
0.3828125000,12,4147.1796875000,4150.0000000000,4127.4360351563,4112.1796875000,4162.1796875000,4163.5898437500,4169.1025390625,4169.2309570313,4166.4101562500,4166.6665039063,4140.0000000000,4135.5126953125,4158.3334960938,4115.6411132813,,,
0.3906250000,12,4154.4873046875,4153.3334960938,4130.1284179688,4115.0000000000,4160.0000000000,4156.4101562500,4168.4614257813,4169.8715820313,4161.7949218750,4166.0258789063,4138.9741210938,4138.3334960938,4152.1796875000,4113.0771484375,,,
0.3984375000,12,4153.0771484375,4157.8203125000,4134.7436523438,4120.2563476563,4160.3847656250,4169.3588867188,4164.2309570313,4173.5898437500,4161.7949218750,4161.6665039063,4140.3847656250,4142.6923828125,4142.9487304688,4123.8461914063,,,
0.4062500000,13,4152.6923828125,4151.6665039063,4136.0258789063,4119.8715820313,4158.5898437500,4158.4614257813,4169.8715820313,4174.8715820313,4160.7690429688,4159.6152343750,4138.0771484375,4141.7949218750,4141.4101562500,4122.0512695313,,,
0.4140625000,13,4149.6152343750,4156.7949218750,4138.4614257813,4123.8461914063,4161.1538085938,4124.4873046875,4168.3334960938,4169.6152343750,4170.5126953125,4172.4360351563,4151.0258789063,4145.3847656250,4158.2050781250,4125.6411132813,,,
0.4218750000,13,4150.1284179688,4145.8974609375,4128.3334960938,4114.1025390625,4153.4614257813,4127.3076171875,4171.6665039063,4171.0258789063,4167.3076171875,4168.0771484375,4142.4360351563,4143.7177734375,4152.0512695313,4121.4101562500,,,
0.4296875000,13,4146.1538085938,4146.7949218750,4131.5385742188,4114.7436523438,4156.9228515625,4172.5639648438,4158.9741210938,4172.4360351563,4159.8715820313,4163.7177734375,4138.0771484375,4135.1284179688,4142.5639648438,4113.8461914063,,,
0.4375000000,14,4141.0258789063,4145.8974609375,4128.9741210938,4107.6923828125,4147.4360351563,4167.8203125000,4164.6152343750,4175.0000000000,4156.4101562500,4163.2050781250,4138.8461914063,4133.5898437500,4143.2050781250,4109.2309570313,,,
0.4453125000,14,4142.3076171875,4143.3334960938,4125.7690429688,4108.7177734375,4148.0771484375,4159.3588867188,4164.8715820313,4172.6923828125,4162.1796875000,4171.0258789063,4139.1025390625,4139.2309570313,4150.7690429688,4112.1796875000,,,
0.4531250000,14,4143.4614257813,4141.0258789063,4127.8203125000,4110.5126953125,4150.7690429688,4176.2822265625,4162.4360351563,4171.5385742188,4149.1025390625,4158.5898437500,4134.2309570313,4139.2309570313,4138.4614257813,4110.5126953125,,,
0.4609375000,14,4140.1284179688,4135.7690429688,4126.2822265625,4103.8461914063,4142.0512695313,4178.4614257813,4167.4360351563,4168.9741210938,4145.5126953125,4151.1538085938,4133.3334960938,4134.2309570313,4127.0512695313,4116.2822265625,,,
0.4687500000,15,4145.6411132813,4132.8203125000,4127.5639648438,4104.3588867188,4141.7949218750,4176.6665039063,4167.1796875000,4168.8461914063,4154.6152343750,4161.9228515625,4136.6665039063,4135.3847656250,4136.2822265625,4115.2563476563,,,
0.4765625000,15,4156.2822265625,4143.2050781250,4139.6152343750,4114.7436523438,4151.2822265625,4185.8974609375,4165.5126953125,4172.4360351563,4151.4101562500,4166.9228515625,4152.4360351563,4147.1796875000,4161.1538085938,4116.5385742188,,,
0.4843750000,15,4158.8461914063,4151.5385742188,4146.6665039063,4124.2309570313,4154.8715820313,4189.7436523438,4166.0258789063,4168.8461914063,4158.7177734375,4173.3334960938,4162.4360351563,4158.7177734375,4164.1025390625,4131.5385742188,,,
0.4921875000,15,4162.0512695313,4151.7949218750,4144.4873046875,4126.2822265625,4152.9487304688,4190.3847656250,4166.0258789063,4168.5898437500,4162.3076171875,4170.3847656250,4155.6411132813,4158.8461914063,4144.2309570313,4129.3588867188,,,
0.5000000000,16,4161.6665039063,4155.8974609375,4144.7436523438,4127.0512695313,4154.2309570313,4189.4873046875,4162.0512695313,4170.5126953125,4164.2309570313,4176.0258789063,4165.7690429688,4158.3334960938,4161.6665039063,4130.5126953125,,,
0.5078125000,16,4162.1796875000,4147.4360351563,4141.1538085938,4126.1538085938,4149.6152343750,4182.6923828125,4169.1025390625,4172.3076171875,4161.9228515625,4178.7177734375,4161.5385742188,4157.0512695313,4168.5898437500,4131.4101562500,,,
0.5156250000,16,4161.4101562500,4160.3847656250,4152.0512695313,4143.3334960938,4159.1025390625,4188.9741210938,4162.6923828125,4172.5639648438,4163.7177734375,4181.7949218750,4164.1025390625,4161.5385742188,4163.9741210938,4129.3588867188,,,
0.5234375000,16,4160.8974609375,4161.5385742188,4150.6411132813,4138.3334960938,4153.0771484375,4185.2563476563,4169.3588867188,4175.1284179688,4161.0258789063,4177.8203125000,4164.1025390625,4161.9228515625,4161.7949218750,4126.6665039063,,,
0.5312500000,17,4153.0771484375,4157.4360351563,4148.8461914063,4134.8715820313,4151.5385742188,4189.1025390625,4162.5639648438,4168.4614257813,4171.5385742188,4185.1284179688,4161.5385742188,4156.2822265625,4163.0771484375,4131.7949218750,,,
0.5390625000,17,4150.0000000000,4153.2050781250,4142.9487304688,4127.6923828125,4143.5898437500,4177.1796875000,4163.7177734375,4171.4101562500,4162.8203125000,4172.3076171875,4151.5385742188,4150.1284179688,4152.8203125000,4122.9487304688,,,
0.5468750000,17,4149.8715820313,4150.7690429688,4136.1538085938,4118.2050781250,4147.3076171875,4174.4873046875,4166.9228515625,4171.6665039063,4169.1025390625,4175.8974609375,4156.1538085938,4150.2563476563,4160.7690429688,4127.6923828125,,,
0.5546875000,17,4153.9741210938,4145.3847656250,4139.6152343750,4125.2563476563,4155.5126953125,4181.1538085938,4172.4360351563,4171.6665039063,4173.2050781250,4183.4614257813,4159.7436523438,4152.8203125000,4156.4101562500,4127.5639648438,,,
0.5625000000,18,4152.5639648438,4158.5898437500,4155.3847656250,4149.3588867188,4159.6152343750,4180.1284179688,4166.0258789063,4170.7690429688,4166.0258789063,4176.5385742188,4162.3076171875,4154.6152343750,4153.3334960938,4125.2563476563,,,
0.5703125000,18,4156.1538085938,4163.3334960938,4158.4614257813,4158.8461914063,4156.4101562500,4171.2822265625,4168.2050781250,4169.4873046875,4164.4873046875,4170.2563476563,4148.3334960938,4155.5126953125,4155.0000000000,4125.0000000000,,,
0.5781250000,18,4167.4360351563,4172.9487304688,4167.6923828125,4174.2309570313,4167.8203125000,4181.4101562500,4166.0258789063,4169.6152343750,4170.0000000000,4173.8461914063,4145.8974609375,4161.9228515625,4154.1025390625,4133.7177734375,,,
0.5859375000,18,4168.3334960938,4181.2822265625,4175.8974609375,4180.2563476563,4171.6665039063,4186.5385742188,4169.3588867188,4172.4360351563,4172.6923828125,4174.7436523438,4157.8203125000,4172.0512695313,4156.6665039063,4141.1538085938,,,
0.5937500000,19,4165.8974609375,4175.0000000000,4172.3076171875,4177.1796875000,4171.1538085938,4188.8461914063,4172.1796875000,4172.5639648438,4176.0258789063,4178.5898437500,4153.3334960938,4170.3847656250,4163.7177734375,4135.5126953125,,,
0.6015625000,19,4168.8461914063,4181.1538085938,4175.5126953125,4186.7949218750,4179.4873046875,4191.7949218750,4168.8461914063,4172.9487304688,4177.8203125000,4178.5898437500,4150.0000000000,4168.0771484375,4171.1538085938,4134.7436523438,,,
0.6093750000,19,4170.8974609375,4188.2050781250,4176.0258789063,4184.7436523438,4177.0512695313,4182.1796875000,4177.6923828125,4172.9487304688,4180.6411132813,4173.7177734375,4153.4614257813,4170.3847656250,4168.7177734375,4146.5385742188,,,
0.6171875000,19,4168.2050781250,4186.4101562500,4174.1025390625,4179.4873046875,4180.1284179688,4185.2563476563,4173.7177734375,4167.0512695313,4192.1796875000,4187.1796875000,4156.7949218750,4170.5126953125,4165.8974609375,4150.6411132813,,,
0.6250000000,20,4174.4873046875,4183.3334960938,4173.4614257813,4179.2309570313,4178.0771484375,4185.1284179688,4173.2050781250,4171.2822265625,4181.0258789063,4185.8974609375,4155.0000000000,4170.1284179688,4154.8715820313,4145.7690429688,,,
0.6328125000,20,4176.0258789063,4187.3076171875,4172.8203125000,4181.2822265625,4178.2050781250,4183.5898437500,4172.9487304688,4171.5385742188,4179.7436523438,4187.1796875000,4157.5639648438,4170.3847656250,4159.2309570313,4153.2050781250,,,
0.6406250000,20,4176.0258789063,4178.9741210938,4165.8974609375,4176.1538085938,4179.6152343750,4180.5126953125,4178.5898437500,4173.4614257813,4179.1025390625,4180.0000000000,4150.8974609375,4167.9487304688,4163.5898437500,4143.3334960938,,,
0.6484375000,20,4171.2822265625,4178.3334960938,4165.0000000000,4178.5898437500,4187.5639648438,4186.1538085938,4173.5898437500,4171.1538085938,4182.4360351563,4176.6665039063,4153.7177734375,4166.0258789063,4169.1025390625,4142.8203125000,,,
0.6562500000,21,4167.6923828125,4169.3588867188,4155.3847656250,4167.8203125000,4177.1796875000,4178.0771484375,4175.2563476563,4169.6152343750,4176.4101562500,4173.9741210938,4137.8203125000,4159.2309570313,4150.6411132813,4140.2563476563,,,
0.6640625000,21,4163.4614257813,4176.1538085938,4158.5898437500,4169.1025390625,4175.3847656250,4173.5898437500,4166.5385742188,4168.8461914063,4172.5639648438,4176.4101562500,4136.1538085938,4154.4873046875,4146.4101562500,4136.4101562500,,,
0.6718750000,21,4171.7949218750,4183.4614257813,4163.0771484375,4171.1538085938,4175.8974609375,4170.8974609375,4174.4873046875,4174.4873046875,4179.3588867188,4177.9487304688,4150.1284179688,4161.9228515625,4162.6923828125,4144.2309570313,,,
0.6796875000,21,4181.2822265625,4192.0512695313,4171.6665039063,4182.0512695313,4189.8715820313,4188.7177734375,4171.2822265625,4172.1796875000,4201.5385742188,4198.7177734375,4165.1284179688,4175.7690429688,4180.5126953125,4162.4360351563,,,
0.6875000000,22,4184.4873046875,4189.6152343750,4180.1284179688,4187.9487304688,4192.1796875000,4192.9487304688,4170.5126953125,4171.5385742188,4198.9741210938,4206.5385742188,4167.0512695313,4180.3847656250,4182.9487304688,4162.0512695313,,,
0.6953125000,22,4186.6665039063,4188.7177734375,4189.3588867188,4191.0258789063,4190.8974609375,4190.7690429688,4172.9487304688,4170.8974609375,4198.3334960938,4205.3847656250,4177.9487304688,4181.9228515625,4191.5385742188,4166.0258789063,,,
0.7031250000,22,4185.1284179688,4190.5126953125,4188.2050781250,4191.2822265625,4191.7949218750,4192.6923828125,4174.7436523438,4170.8974609375,4199.1025390625,4198.4614257813,4180.6411132813,4181.7949218750,4186.6665039063,4166.2822265625,,,
0.7109375000,22,4179.7436523438,4193.7177734375,4181.9228515625,4192.1796875000,4191.9228515625,4191.2822265625,4176.4101562500,4172.8203125000,4194.7436523438,4198.4614257813,4179.2309570313,4181.2822265625,4186.5385742188,4165.7690429688,,,
0.7187500000,23,4181.9228515625,4197.6923828125,4188.8461914063,4200.5126953125,4197.8203125000,4197.6923828125,4178.5898437500,4171.7949218750,4208.9741210938,4223.3334960938,4186.1538085938,4187.6923828125,4197.6923828125,4171.9228515625,,,
0.7265625000,23,4191.2822265625,4203.3334960938,4200.7690429688,4205.7690429688,4203.5898437500,4203.8461914063,4180.3847656250,4173.7177734375,4212.5639648438,4227.4360351563,4187.0512695313,4192.9487304688,4192.3076171875,4173.2050781250,,,
0.7343750000,23,4184.2309570313,4198.7177734375,4192.4360351563,4196.7949218750,4198.8461914063,4194.7436523438,4176.9228515625,4173.7177734375,4199.2309570313,4209.1025390625,4181.4101562500,4185.3847656250,4192.9487304688,4174.3588867188,,,
0.7421875000,23,4175.5126953125,4174.8715820313,4173.9741210938,4183.2050781250,4190.0000000000,4185.5126953125,4176.4101562500,4173.7177734375,4188.0771484375,4200.2563476563,4167.0512695313,4172.3076171875,4188.9741210938,4160.0000000000,,,
0.7500000000,24,4174.4873046875,4182.5639648438,4183.3334960938,4192.4360351563,4194.2309570313,4190.0000000000,4167.6923828125,4173.7177734375,4190.7690429688,4201.7949218750,4172.3076171875,4175.2563476563,4179.6152343750,4154.4873046875,,,
0.7578125000,24,4180.1284179688,4188.9741210938,4187.6923828125,4191.2822265625,4186.2822265625,4180.6411132813,4176.1538085938,4173.7177734375,4187.1796875000,4192.5639648438,4170.0000000000,4179.2309570313,4171.5385742188,4160.2563476563,,,
0.7656250000,24,4180.8974609375,4187.9487304688,4186.9228515625,4194.6152343750,4194.2309570313,4189.6152343750,4170.8974609375,4167.5639648438,4195.0000000000,4204.4873046875,4171.0258789063,4176.7949218750,4180.6411132813,4163.7177734375,,,
0.7734375000,24,4179.6152343750,4179.8715820313,4180.1284179688,4190.1284179688,4192.0512695313,4189.7436523438,4175.2563476563,4173.7177734375,4187.4360351563,4198.0771484375,4169.1025390625,4176.0258789063,4171.0258789063,4156.5385742188,,,
0.7812500000,25,4172.6923828125,4181.4101562500,4178.7177734375,4192.1796875000,4187.9487304688,4187.4360351563,4172.1796875000,4172.4360351563,4194.4873046875,4203.4614257813,4175.8974609375,4180.0000000000,4175.8974609375,4163.4614257813,,,
0.7890625000,25,4173.4614257813,4176.7949218750,4176.7949218750,4193.2050781250,4184.8715820313,4183.7177734375,4171.9228515625,4172.3076171875,4195.5126953125,4210.0000000000,4169.6152343750,4177.9487304688,4186.4101562500,4155.2563476563,,,
0.7968750000,25,4173.5898437500,4175.5126953125,4179.1025390625,4187.8203125000,4188.7177734375,4185.0000000000,4169.8715820313,4173.0771484375,4190.0000000000,4199.3588867188,4165.2563476563,4172.8203125000,4186.1538085938,4156.2822265625,,,
0.8046875000,25,4176.4101562500,4175.8974609375,4177.1796875000,4181.1538085938,4189.2309570313,4185.5126953125,4174.8715820313,4171.6665039063,4184.2309570313,4190.8974609375,4170.5126953125,4175.7690429688,4172.9487304688,4162.3076171875,,,
0.8125000000,26,4178.8461914063,4187.9487304688,4184.7436523438,4187.4360351563,4194.2309570313,4193.9741210938,4169.7436523438,4170.3847656250,4185.0000000000,4207.3076171875,4202.5639648438,4187.8203125000,4183.7177734375,4166.2822265625,,,
0.8203125000,26,4177.6923828125,4183.0771484375,4188.7177734375,4175.2563476563,4189.1025390625,4192.6923828125,4173.4614257813,4173.4614257813,4193.0771484375,4220.6411132813,4225.5126953125,4195.3847656250,4203.9741210938,4176.4101562500,,,
0.8281250000,26,4177.3076171875,4171.7949218750,4189.8715820313,4166.5385742188,4190.6411132813,4197.4360351563,4172.0512695313,4171.7949218750,4203.0771484375,4226.6665039063,4228.7177734375,4194.8715820313,4212.8203125000,4179.8715820313,,,
0.8359375000,26,4175.3847656250,4174.3588867188,4189.8715820313,4172.1796875000,4191.2822265625,4196.6665039063,4167.6923828125,4170.3847656250,4201.5385742188,4228.8461914063,4233.4614257813,4193.5898437500,4216.9228515625,4166.9228515625,,,
0.8437500000,27,4174.7436523438,4170.3847656250,4182.4360351563,4164.4873046875,4181.1538085938,4186.4101562500,4176.5385742188,4171.7949218750,4201.2822265625,4227.3076171875,4231.9228515625,4189.2309570313,4215.3847656250,4162.5639648438,,,
0.8515625000,27,4171.6665039063,4164.4873046875,4182.3076171875,4160.7690429688,4183.9741210938,4192.8203125000,4173.4614257813,4168.8461914063,4206.0258789063,4225.3847656250,4229.1025390625,4186.4101562500,4208.3334960938,4166.7949218750,,,
0.8593750000,27,4169.7436523438,4163.2050781250,4176.9228515625,4158.0771484375,4182.4360351563,4189.6152343750,4174.2309570313,4172.3076171875,4192.4360351563,4206.0258789063,4222.9487304688,4183.3334960938,4196.0258789063,4162.6923828125,,,
0.8671875000,27,4170.6411132813,4164.2309570313,4173.7177734375,4158.4614257813,4186.5385742188,4187.3076171875,4174.2309570313,4172.4360351563,4194.8715820313,4203.9741210938,4218.3334960938,4179.2309570313,4190.3847656250,4167.9487304688,,,
0.8750000000,28,4180.6411132813,4158.5898437500,4176.1538085938,4158.4614257813,4190.1284179688,4189.2309570313,4178.4614257813,4173.8461914063,4192.6923828125,4204.1025390625,4213.4614257813,4178.4614257813,4180.3847656250,4164.7436523438,,,
0.8828125000,28,4172.5639648438,4160.7690429688,4172.9487304688,4159.6152343750,4187.6923828125,4192.4360351563,4171.6665039063,4170.0000000000,4191.2822265625,4205.3847656250,4220.3847656250,4178.7177734375,4190.8974609375,4162.1796875000,,,
0.8906250000,28,4164.1025390625,4152.6923828125,4159.6152343750,4151.4101562500,4177.1796875000,4185.5126953125,4172.6923828125,4169.4873046875,4187.0512695313,4197.3076171875,4206.5385742188,4171.7949218750,4180.7690429688,4152.6923828125,,,
0.8984375000,28,4170.1284179688,4162.5639648438,4171.6665039063,4158.0771484375,4185.7690429688,4193.5898437500,4168.7177734375,4170.7690429688,4192.6923828125,4201.1538085938,4211.9228515625,4172.0512695313,4179.1025390625,4157.4360351563,,,
0.9062500000,29,4177.1796875000,4160.2563476563,4172.8203125000,4152.6923828125,4179.7436523438,4191.4101562500,4180.1284179688,4175.7690429688,4192.4360351563,4206.9228515625,4217.8203125000,4173.7177734375,4188.5898437500,4158.7177734375,,,
0.9140625000,29,4172.9487304688,4159.4873046875,4170.6411132813,4157.5639648438,4185.6411132813,4196.7949218750,4172.9487304688,4171.2822265625,4198.5898437500,4218.9741210938,4218.0771484375,4173.3334960938,4191.2822265625,4155.8974609375,,,
0.9218750000,29,4176.9228515625,4164.3588867188,4177.3076171875,4164.4873046875,4187.6923828125,4193.4614257813,4171.7949218750,4171.6665039063,4190.8974609375,4209.7436523438,4218.3334960938,4178.8461914063,4190.5126953125,4155.5126953125,,,
0.9296875000,29,4179.1025390625,4168.0771484375,4182.6923828125,4163.0771484375,4183.8461914063,4188.5898437500,4174.6152343750,4171.7949218750,4193.7177734375,4208.3334960938,4220.5126953125,4182.4360351563,4202.0512695313,4165.0000000000,,,
0.9375000000,30,4174.1025390625,4164.8715820313,4177.3076171875,4158.7177734375,4178.9741210938,4186.0258789063,4176.1538085938,4172.4360351563,4196.4101562500,4212.4360351563,4216.0258789063,4178.3334960938,4191.5385742188,4161.2822265625,,,
0.9453125000,30,4168.9741210938,4162.6923828125,4172.8203125000,4157.5639648438,4172.9487304688,4179.6152343750,4173.0771484375,4172.4360351563,4192.3076171875,4209.4873046875,4219.3588867188,4178.5898437500,4189.7436523438,4162.1796875000,,,
0.9531250000,30,4168.4614257813,4158.0771484375,4171.6665039063,4156.7949218750,4170.8974609375,4177.0512695313,4170.7690429688,4170.0000000000,4194.8715820313,4211.2822265625,4217.4360351563,4180.2563476563,4203.4614257813,4164.4873046875,,,
0.9609375000,30,4171.2822265625,4161.0258789063,4173.2050781250,4162.8203125000,4174.8715820313,4177.5639648438,4170.5126953125,4172.3076171875,4191.6665039063,4207.0512695313,4213.5898437500,4177.5639648438,4197.1796875000,4158.9741210938,,,
0.9687500000,31,4169.1025390625,4161.7949218750,4169.1025390625,4164.8715820313,4170.5126953125,4170.0000000000,4171.7949218750,4173.2050781250,4190.6411132813,4201.5385742188,4213.7177734375,4176.0258789063,4189.3588867188,4162.1796875000,,,
0.9765625000,31,4170.1284179688,4152.9487304688,4163.3334960938,4160.6411132813,4165.1284179688,4166.0258789063,4174.2309570313,4173.7177734375,4187.4360351563,4196.4101562500,4195.6411132813,4169.7436523438,4180.6411132813,4159.2309570313,,,
0.9843750000,31,4168.0771484375,4164.3588867188,4172.0512695313,4165.0000000000,4171.6665039063,4171.2822265625,4168.9741210938,4173.2050781250,4181.9228515625,4189.4873046875,4190.5126953125,4164.4873046875,4171.9228515625,4157.9487304688,,,
0.9921875000,31,4167.6923828125,4162.8203125000,4167.8203125000,4154.8715820313,4161.9228515625,4164.7436523438,4175.8974609375,4172.3076171875,4171.5385742188,4174.8715820313,4187.4360351563,4162.5639648438,4161.4101562500,4156.9228515625,,,
1.0000000000,32,4170.1284179688,4163.3334960938,4169.8715820313,4159.6152343750,4169.8715820313,4176.4101562500,4167.3076171875,4167.4360351563,4178.8461914063,4184.4873046875,4190.8974609375,4165.5126953125,4169.6152343750,4158.7177734375,,,
1.0078125000,32,4176.9228515625,4166.4101562500,4175.2563476563,4163.7177734375,4175.5126953125,4180.8974609375,4172.9487304688,4172.5639648438,4182.9487304688,4192.5639648438,4192.3076171875,4168.2050781250,4170.1284179688,4159.8715820313,,,
1.0156250000,32,4175.2563476563,4166.7949218750,4177.5639648438,4163.8461914063,4175.8974609375,4181.7949218750,4173.7177734375,4170.8974609375,4194.6152343750,4200.3847656250,4199.4873046875,4172.1796875000,4177.9487304688,4167.5639648438,,,
1.0234375000,32,4180.1284179688,4161.1538085938,4179.6152343750,4168.0771484375,4176.6665039063,4180.6411132813,4175.8974609375,4171.4101562500,4193.0771484375,4197.3076171875,4204.8715820313,4180.0000000000,4193.3334960938,4162.6923828125,,,
1.0312500000,33,4180.2563476563,4172.5639648438,4188.0771484375,4178.4614257813,4187.6923828125,4184.6152343750,4171.6665039063,4170.0000000000,4192.3076171875,4207.9487304688,4213.5898437500,4183.0771484375,4205.0000000000,4170.2563476563,,,
1.0390625000,33,4175.0000000000,4172.1796875000,4180.8974609375,4168.7177734375,4183.0771484375,4178.2050781250,4173.4614257813,4170.3847656250,4184.4873046875,4207.8203125000,4196.2822265625,4174.8715820313,4184.2309570313,4167.5639648438,,,
1.0468750000,33,4173.0771484375,4174.4873046875,4180.3847656250,4166.7949218750,4180.5126953125,4176.0258789063,4169.1025390625,4173.3334960938,4182.4360351563,4198.2050781250,4197.5639648438,4174.6152343750,4181.0258789063,4165.3847656250,,,
1.0546875000,33,4178.7177734375,4165.8974609375,4178.4614257813,4157.4360351563,4172.0512695313,4168.7177734375,4176.4101562500,4174.2309570313,4183.9741210938,4193.0771484375,4193.3334960938,4177.1796875000,4181.9228515625,4170.1284179688,,,
1.0625000000,34,4182.5639648438,4160.5126953125,4178.2050781250,4155.7690429688,4172.3076171875,4172.8203125000,4172.6923828125,4168.4614257813,4178.5898437500,4199.2309570313,4181.7949218750,4173.7177734375,4172.9487304688,4168.0771484375,,,
1.0703125000,34,4182.5639648438,4173.7177734375,4185.3847656250,4172.0512695313,4179.2309570313,4174.2309570313,4168.4614257813,4170.3847656250,4169.8715820313,4200.7690429688,4203.4614257813,4180.6411132813,4188.2050781250,4166.7949218750,,,
1.0781250000,34,4185.8974609375,4180.2563476563,4187.6923828125,4177.4360351563,4182.0512695313,4172.3076171875,4174.8715820313,4172.6923828125,4179.8715820313,4205.7690429688,4221.6665039063,4190.2563476563,4206.9228515625,4180.3847656250,,,
1.0859375000,34,4187.4360351563,4174.3588867188,4184.2309570313,4169.7436523438,4182.0512695313,4179.4873046875,4171.7949218750,4167.0512695313,4187.9487304688,4210.1284179688,4207.1796875000,4185.2563476563,4197.1796875000,4179.8715820313,,,
1.0937500000,35,4184.6152343750,4168.3334960938,4177.9487304688,4162.5639648438,4174.1025390625,4176.2822265625,4174.3588867188,4168.9741210938,4172.1796875000,4195.1284179688,4197.9487304688,4176.6665039063,4190.7690429688,4167.4360351563,,,
1.1015625000,35,4179.1025390625,4172.6923828125,4179.7436523438,4169.4873046875,4182.0512695313,4179.7436523438,4173.8461914063,4170.1284179688,4175.3847656250,4196.0258789063,4206.4101562500,4177.9487304688,4202.4360351563,4174.3588867188,,,
1.1093750000,35,4180.0000000000,4171.9228515625,4182.3076171875,4167.9487304688,4189.4873046875,4184.4873046875,4176.0258789063,4171.5385742188,4178.4614257813,4190.7690429688,4199.2309570313,4177.9487304688,4196.5385742188,4172.4360351563,,,
1.1171875000,35,4170.7690429688,4170.2563476563,4179.4873046875,4160.0000000000,4189.4873046875,4187.8203125000,4173.7177734375,4169.6152343750,4184.2309570313,4195.7690429688,4201.7949218750,4174.4873046875,4189.4873046875,4168.4614257813,,,
1.1250000000,36,4163.7177734375,4163.7177734375,4169.6152343750,4153.3334960938,4183.9741210938,4185.6411132813,4176.2822265625,4171.6665039063,4185.6411132813,4198.2050781250,4195.3847656250,4171.0258789063,4175.0000000000,4161.6665039063,,,
1.1328125000,36,4167.5639648438,4175.7690429688,4177.3076171875,4165.2563476563,4191.2822265625,4192.6923828125,4167.4360351563,4169.7436523438,4195.5126953125,4198.2050781250,4201.6665039063,4175.0000000000,4191.4101562500,4169.6152343750,,,
1.1406250000,36,4174.7436523438,4170.3847656250,4174.7436523438,4160.1284179688,4182.9487304688,4187.5639648438,4176.7949218750,4170.8974609375,4195.1284179688,4200.5126953125,4201.0258789063,4174.7436523438,4203.9741210938,4166.7949218750,,,
1.1484375000,36,4173.0771484375,4168.0771484375,4174.1025390625,4158.5898437500,4184.8715820313,4191.5385742188,4172.6923828125,4170.6411132813,4197.9487304688,4216.9228515625,4204.1025390625,4172.8203125000,4197.9487304688,4161.0258789063,,,
1.1562500000,37,4174.4873046875,4166.7949218750,4171.6665039063,4155.7690429688,4182.4360351563,4184.7436523438,4174.7436523438,4171.4101562500,4197.1796875000,4214.2309570313,4206.1538085938,4172.9487304688,4188.7177734375,4164.8715820313,,,
1.1640625000,37,4173.5898437500,4167.9487304688,4169.6152343750,4154.4873046875,4184.1025390625,4185.2563476563,4172.6923828125,4165.6411132813,4203.7177734375,4212.8203125000,4203.3334960938,4169.4873046875,4194.8715820313,4172.0512695313,,,
1.1718750000,37,4172.5639648438,4168.4614257813,4168.4614257813,4156.9228515625,4182.0512695313,4186.1538085938,4171.7949218750,4169.7436523438,4195.0000000000,4204.4873046875,4196.6665039063,4166.9228515625,4195.0000000000,4161.2822265625,,,
1.1796875000,37,4172.8203125000,4169.6152343750,4170.2563476563,4158.8461914063,4176.6665039063,4178.5898437500,4171.1538085938,4171.7949218750,4188.0771484375,4198.8461914063,4202.0512695313,4169.1025390625,4197.3076171875,4159.8715820313,,,
1.1875000000,38,4175.5126953125,4166.6665039063,4170.5126953125,4158.5898437500,4176.0258789063,4176.0258789063,4173.4614257813,4166.1538085938,4193.9741210938,4206.2822265625,4201.6665039063,4172.6923828125,4192.9487304688,4162.8203125000,,,
1.1953125000,38,4176.2822265625,4173.3334960938,4175.1284179688,4167.5639648438,4181.2822265625,4183.7177734375,4172.3076171875,4169.4873046875,4193.3334960938,4205.0000000000,4203.2050781250,4174.4873046875,4194.2309570313,4163.2050781250,,,
1.2031250000,38,4170.5126953125,4168.0771484375,4174.6152343750,4166.0258789063,4177.4360351563,4179.7436523438,4170.6411132813,4174.3588867188,4187.0512695313,4197.0512695313,4204.6152343750,4170.1284179688,4198.0771484375,4161.5385742188,,,
1.2109375000,38,4172.5639648438,4158.8461914063,4174.6152343750,4160.5126953125,4175.0000000000,4175.6411132813,4171.1538085938,4172.5639648438,4180.8974609375,4195.8974609375,4197.6923828125,4167.4360351563,4176.1538085938,4158.2050781250,,,
1.2187500000,39,4175.0000000000,4174.4873046875,4183.4614257813,4171.1538085938,4181.2822265625,4183.7177734375,4169.1025390625,4169.7436523438,4188.5898437500,4195.0000000000,4205.2563476563,4178.4614257813,4175.8974609375,4167.4360351563,,,
1.2265625000,39,4171.0258789063,4173.3334960938,4176.1538085938,4168.8461914063,4176.7949218750,4180.8974609375,4175.1284179688,4172.9487304688,4190.6411132813,4185.5126953125,4199.4873046875,4179.4873046875,4190.2563476563,4162.3076171875,,,
1.2343750000,39,4160.1284179688,4164.4873046875,4167.9487304688,4161.6665039063,4183.5898437500,4182.0512695313,4167.8203125000,4173.3334960938,4188.9741210938,4190.5126953125,4182.8203125000,4166.9228515625,4182.6923828125,4148.9741210938,,,
1.2421875000,39,4160.6411132813,4150.8974609375,4156.2822265625,4142.9487304688,4174.1025390625,4174.6152343750,4175.1284179688,4173.7177734375,4181.5385742188,4181.6665039063,4163.7177734375,4160.0000000000,4157.9487304688,4147.5639648438,,,
1.2500000000,40,4160.5126953125,4149.4873046875,4153.8461914063,4142.8203125000,4170.6411132813,4176.5385742188,4170.3847656250,4167.5639648438,4185.5126953125,4182.5639648438,4167.0512695313,4163.7177734375,4168.8461914063,4152.3076171875,,,
1.2578125000,40,4157.3076171875,4151.2822265625,4153.0771484375,4147.3076171875,4168.7177734375,4168.7177734375,4171.9228515625,4173.7177734375,4169.7436523438,4173.7177734375,4167.3076171875,4165.6411132813,4178.9741210938,4138.2050781250,,,
1.2656250000,40,4158.2050781250,4156.7949218750,4154.1025390625,4146.2822265625,4169.6152343750,4165.5126953125,4171.7949218750,4173.0771484375,4172.1796875000,4176.4101562500,4166.6665039063,4164.3588867188,4178.9741210938,4150.2563476563,,,
1.2734375000,40,4173.3334960938,4152.4360351563,4156.0258789063,4142.6923828125,4169.8715820313,4167.3076171875,4174.2309570313,4168.3334960938,4180.6411132813,4187.4360351563,4158.4614257813,4164.6152343750,4168.4614257813,4158.7177734375,,,
1.2812500000,41,4178.5898437500,4164.6152343750,4167.3076171875,4155.3847656250,4178.0771484375,4174.7436523438,4166.0258789063,4171.1538085938,4180.8974609375,4197.8203125000,4173.8461914063,4170.2563476563,4186.9228515625,4161.4101562500,,,
1.2890625000,41,4175.2563476563,4161.7949218750,4162.6923828125,4151.1538085938,4172.4360351563,4171.7949218750,4171.2822265625,4176.0258789063,4178.7177734375,4191.9228515625,4170.6411132813,4168.3334960938,4191.7949218750,4163.9741210938,,,
1.2968750000,41,4176.4101562500,4160.2563476563,4165.8974609375,4153.7177734375,4180.1284179688,4178.9741210938,4168.4614257813,4171.4101562500,4183.3334960938,4191.2822265625,4159.2309570313,4164.8715820313,4175.1284179688,4162.8203125000,,,
1.3046875000,41,4176.9228515625,4166.1538085938,4173.7177734375,4158.7177734375,4183.9741210938,4177.5639648438,4171.0258789063,4171.9228515625,4181.2822265625,4193.3334960938,4166.9228515625,4168.8461914063,4181.5385742188,4161.1538085938,,,
1.3125000000,42,4170.2563476563,4156.6665039063,4163.8461914063,4148.4614257813,4174.1025390625,4174.4873046875,4177.0512695313,4172.8203125000,4188.0771484375,4199.2309570313,4165.6411132813,4168.5898437500,4188.5898437500,4161.4101562500,,,
1.3203125000,42,4165.2563476563,4151.9228515625,4161.0258789063,4147.1796875000,4173.8461914063,4180.5126953125,4172.5639648438,4172.6923828125,4192.0512695313,4200.3847656250,4158.7177734375,4166.0258789063,4175.5126953125,4156.1538085938,,,
1.3281250000,42,4169.8715820313,4155.7690429688,4167.8203125000,4153.3334960938,4179.2309570313,4180.5126953125,4175.7690429688,4174.8715820313,4185.0000000000,4191.9228515625,4160.7690429688,4167.0512695313,4175.1284179688,4159.6152343750,,,
1.3359375000,42,4171.4101562500,4154.8715820313,4165.3847656250,4156.9228515625,4182.9487304688,4183.7177734375,4175.1284179688,4170.2563476563,4193.3334960938,4196.5385742188,4158.9741210938,4165.5126953125,4182.3076171875,4161.4101562500,,,
1.3437500000,43,4170.2563476563,4154.1025390625,4160.7690429688,4154.6152343750,4173.8461914063,4180.3847656250,4175.5126953125,4170.7690429688,4191.4101562500,4195.5126953125,4153.3334960938,4160.6411132813,4175.8974609375,4147.5639648438,,,
1.3515625000,43,4168.5898437500,4161.9228515625,4168.4614257813,4158.5898437500,4172.1796875000,4179.4873046875,4175.0000000000,4171.6665039063,4190.2563476563,4195.5126953125,4164.3588867188,4163.7177734375,4185.8974609375,4151.4101562500,,,
1.3593750000,43,4179.6152343750,4161.9228515625,4173.8461914063,4163.9741210938,4179.3588867188,4182.9487304688,4181.0258789063,4174.1025390625,4186.2822265625,4188.0771484375,4168.9741210938,4169.1025390625,4182.6923828125,4153.9741210938,,,
1.3671875000,43,4180.6411132813,4168.9741210938,4179.4873046875,4170.3847656250,4188.0771484375,4189.6152343750,4176.4101562500,4171.4101562500,4187.5639648438,4191.0258789063,4179.1025390625,4172.3076171875,4181.1538085938,4156.5385742188,,,
1.3750000000,44,4175.2563476563,4152.5639648438,4170.0000000000,4155.1284179688,4174.8715820313,4178.5898437500,4181.5385742188,4175.0000000000,4177.5639648438,4188.8461914063,4161.2822265625,4167.0512695313,4177.4360351563,4149.6152343750,,,
1.3828125000,44,4175.2563476563,4150.2563476563,4169.8715820313,4153.0771484375,4177.9487304688,4181.1538085938,4171.9228515625,4175.5126953125,4175.2563476563,4188.8461914063,4149.1025390625,4163.7177734375,4174.4873046875,4147.1796875000,,,
1.3906250000,44,4181.4101562500,4159.7436523438,4168.9741210938,4153.7177734375,4175.8974609375,4178.9741210938,4176.9228515625,4174.8715820313,4177.4360351563,4187.8203125000,4156.6665039063,4166.4101562500,4173.8461914063,4151.0258789063,,,
1.3984375000,44,4178.7177734375,4167.9487304688,4170.8974609375,4161.4101562500,4182.3076171875,4186.5385742188,4174.1025390625,4168.7177734375,4193.0771484375,4203.5898437500,4167.8203125000,4171.1538085938,4184.1025390625,4162.1796875000,,,
1.4062500000,45,4179.8715820313,4165.5126953125,4174.1025390625,4164.3588867188,4189.3588867188,4188.4614257813,4174.7436523438,4173.7177734375,4190.0000000000,4198.3334960938,4161.1538085938,4173.3334960938,4173.2050781250,4161.4101562500,,,
1.4140625000,45,4184.1025390625,4169.2309570313,4177.3076171875,4162.0512695313,4187.6923828125,4185.7690429688,4176.7949218750,4173.4614257813,4188.4614257813,4194.6152343750,4163.3334960938,4172.0512695313,4174.4873046875,4171.0258789063,,,
1.4218750000,45,4184.1025390625,4164.8715820313,4173.3334960938,4158.0771484375,4180.6411132813,4182.9487304688,4177.9487304688,4168.8461914063,4188.2050781250,4199.7436523438,4161.1538085938,4170.2563476563,4179.2309570313,4168.4614257813,,,
1.4296875000,45,4177.6923828125,4164.4873046875,4170.5126953125,4159.8715820313,4179.2309570313,4179.3588867188,4173.3334960938,4172.5639648438,4176.7949218750,4188.9741210938,4159.8715820313,4168.8461914063,4180.8974609375,4153.9741210938,,,
1.4375000000,46,4173.3334960938,4163.7177734375,4164.3588867188,4156.5385742188,4172.9487304688,4172.8203125000,4172.9487304688,4173.0771484375,4174.4873046875,4183.3334960938,4160.6411132813,4168.0771484375,4186.2822265625,4153.7177734375,,,
1.4453125000,46,4179.3588867188,4160.3847656250,4163.2050781250,4159.4873046875,4171.2822265625,4172.8203125000,4171.9228515625,4169.8715820313,4179.1025390625,4190.2563476563,4161.9228515625,4168.9741210938,4183.3334960938,4158.7177734375,,,
1.4531250000,46,4181.1538085938,4165.1284179688,4171.6665039063,4168.4614257813,4172.1796875000,4169.7436523438,4168.8461914063,4171.0258789063,4177.5639648438,4190.8974609375,4175.1284179688,4172.9487304688,4184.3588867188,4161.4101562500,,,
1.4609375000,46,4178.3334960938,4158.5898437500,4169.8715820313,4164.8715820313,4168.2050781250,4165.7690429688,4173.8461914063,4174.4873046875,4166.9228515625,4182.3076171875,4168.2050781250,4172.4360351563,4182.9487304688,4153.7177734375,,,
1.4687500000,47,4176.5385742188,4162.4360351563,4171.0258789063,4167.5639648438,4178.8461914063,4177.1796875000,4166.9228515625,4173.2050781250,4170.6411132813,4183.5898437500,4161.5385742188,4171.7949218750,4190.0000000000,4152.9487304688,,,
1.4765625000,47,4183.3334960938,4167.1796875000,4172.4360351563,4165.8974609375,4174.3588867188,4171.5385742188,4174.4873046875,4174.6152343750,4180.1284179688,4186.7949218750,4166.9228515625,4174.6152343750,4185.8974609375,4165.1284179688,,,
1.4843750000,47,4182.5639648438,4174.2309570313,4178.4614257813,4176.0258789063,4175.0000000000,4171.6665039063,4170.7690429688,4168.2050781250,4194.8715820313,4207.6923828125,4180.3847656250,4180.8974609375,4185.5126953125,4174.7436523438,,,
1.4921875000,47,4180.1284179688,4173.9741210938,4177.6923828125,4179.2309570313,4172.0512695313,4168.8461914063,4170.1284179688,4170.7690429688,4183.2050781250,4200.5126953125,4178.9741210938,4184.1025390625,4192.6923828125,4160.5126953125,,,
1.5000000000,48,4180.3847656250,4177.5639648438,4181.1538085938,4178.4614257813,4172.1796875000,4171.6665039063,4168.2050781250,4173.8461914063,4185.5126953125,4193.9741210938,4178.8461914063,4182.1796875000,4203.7177734375,4165.0000000000,,,
1.5078125000,48,4185.7690429688,4175.2563476563,4181.4101562500,4176.4101562500,4169.2309570313,4172.9487304688,4174.3588867188,4175.2563476563,4183.4614257813,4191.0258789063,4164.1025390625,4176.1538085938,4178.7177734375,4163.8461914063,,,
1.5156250000,48,4180.1284179688,4185.0000000000,4183.3334960938,4184.2309570313,4175.6411132813,4179.6152343750,4171.7949218750,4171.4101562500,4177.4360351563,4192.0512695313,4170.0000000000,4178.5898437500,4177.3076171875,4161.2822265625,,,
1.5234375000,48,4174.8715820313,4181.4101562500,4176.5385742188,4180.8974609375,4174.1025390625,4180.0000000000,4178.0771484375,4172.8203125000,4181.2822265625,4195.6411132813,4175.2563476563,4181.4101562500,4196.0258789063,4160.5126953125,,,
1.5312500000,49,4178.8461914063,4183.8461914063,4179.4873046875,4186.0258789063,4179.4873046875,4189.4873046875,4170.7690429688,4174.3588867188,4192.9487304688,4202.6923828125,4175.7690429688,4181.4101562500,4196.2822265625,4164.4873046875,,,
1.5390625000,49,4185.1284179688,4183.7177734375,4175.8974609375,4179.6152343750,4175.7690429688,4186.6665039063,4173.8461914063,4174.3588867188,4190.0000000000,4193.8461914063,4171.6665039063,4179.3588867188,4186.7949218750,4162.1796875000,,,
1.5468750000,49,4185.0000000000,4178.3334960938,4168.3334960938,4172.5639648438,4179.6152343750,4188.7177734375,4177.6923828125,4170.7690429688,4193.5898437500,4195.0000000000,4166.7949218750,4175.0000000000,4188.9741210938,4157.8203125000,,,
1.5546875000,49,4182.5639648438,4178.0771484375,4169.2309570313,4180.6411132813,4189.6152343750,4196.1538085938,4173.9741210938,4171.9228515625,4194.6152343750,4197.4360351563,4165.1284179688,4174.2309570313,4185.2563476563,4152.3076171875,,,
1.5625000000,50,4178.7177734375,4175.1284179688,4164.3588867188,4179.6152343750,4182.0512695313,4193.2050781250,4176.5385742188,4172.6923828125,4187.1796875000,4187.0512695313,4163.8461914063,4175.1284179688,4177.0512695313,4153.0771484375,,,
1.5703125000,50,4175.7690429688,4175.0000000000,4163.3334960938,4178.9741210938,4181.7949218750,4201.2822265625,4175.1284179688,4170.1284179688,4189.8715820313,4190.1284179688,4166.6665039063,4177.0512695313,4176.6665039063,4158.3334960938,,,
1.5781250000,50,4183.8461914063,4185.0000000000,4175.7690429688,4185.8974609375,4191.4101562500,4209.1025390625,4177.5639648438,4174.4873046875,4192.1796875000,4193.9741210938,4173.0771484375,4185.0000000000,4188.8461914063,4163.9741210938,,,
1.5859375000,50,4186.7949218750,4192.6923828125,4185.7690429688,4191.2822265625,4196.9228515625,4208.0771484375,4178.2050781250,4170.8974609375,4201.2822265625,4204.2309570313,4176.9228515625,4192.4360351563,4199.3588867188,4175.7690429688,,,
1.5937500000,51,4188.8461914063,4190.6411132813,4186.9228515625,4194.4873046875,4194.4873046875,4202.1796875000,4180.3847656250,4169.6152343750,4197.6923828125,4205.3847656250,4170.6411132813,4190.7690429688,4177.6923828125,4173.7177734375,,,
1.6015625000,51,4186.1538085938,4200.1284179688,4191.6665039063,4201.2822265625,4197.8203125000,4203.4614257813,4176.7949218750,4170.6411132813,4198.0771484375,4201.5385742188,4175.0000000000,4189.2309570313,4178.7177734375,4177.0512695313,,,
1.6093750000,51,4182.8203125000,4183.9741210938,4179.6152343750,4184.3588867188,4187.5639648438,4194.2309570313,4183.5898437500,4173.4614257813,4192.4360351563,4191.7949218750,4157.9487304688,4182.0512695313,4188.9741210938,4166.0258789063,,,
1.6171875000,51,4178.0771484375,4180.7690429688,4180.7690429688,4183.7177734375,4189.8715820313,4193.2050781250,4171.4101562500,4171.4101562500,4190.8974609375,4199.8715820313,4169.3588867188,4181.6665039063,4192.9487304688,4159.7436523438,,,
1.6250000000,52,4186.7949218750,4188.5898437500,4187.6923828125,4185.2563476563,4187.9487304688,4187.8203125000,4177.1796875000,4173.5898437500,4195.5126953125,4207.6923828125,4207.5639648438,4198.4614257813,4199.7436523438,4175.5126953125,,,
1.6328125000,52,4192.0512695313,4188.5898437500,4193.8461914063,4179.2309570313,4195.0000000000,4197.0512695313,4178.7177734375,4171.0258789063,4216.0258789063,4225.1284179688,4235.3847656250,4209.4873046875,4225.3847656250,4192.0512695313,,,
1.6406250000,52,4186.5385742188,4175.1284179688,4189.1025390625,4165.8974609375,4189.4873046875,4195.0000000000,4179.3588867188,4172.9487304688,4210.0000000000,4223.0771484375,4239.1025390625,4205.0000000000,4232.1796875000,4179.8715820313,,,
1.6484375000,52,4184.2309570313,4181.7949218750,4193.5898437500,4171.5385742188,4186.1538085938,4195.3847656250,4176.9228515625,4169.1025390625,4210.3847656250,4225.2563476563,4250.7690429688,4208.8461914063,4232.1796875000,4185.1284179688,,,
1.6562500000,53,4190.8974609375,4186.2822265625,4200.6411132813,4178.8461914063,4189.4873046875,4197.3076171875,4179.3588867188,4169.1025390625,4214.1025390625,4229.3588867188,4250.0000000000,4216.6665039063,4227.9487304688,4192.3076171875,,,
1.6640625000,53,4188.4614257813,4180.8974609375,4196.9228515625,4173.9741210938,4187.0512695313,4191.6665039063,4177.4360351563,4174.2309570313,4207.9487304688,4223.4614257813,4249.7436523438,4211.4101562500,4236.2822265625,4187.9487304688,,,
1.6718750000,53,4183.2050781250,4175.3847656250,4187.1796875000,4165.3847656250,4179.4873046875,4187.6923828125,4180.0000000000,4171.6665039063,4212.8203125000,4218.5898437500,4246.0258789063,4204.8715820313,4228.9741210938,4182.9487304688,,,
1.6796875000,53,4186.1538085938,4180.1284179688,4189.1025390625,4168.4614257813,4185.6411132813,4197.9487304688,4178.4614257813,4170.0000000000,4214.7436523438,4215.5126953125,4234.7436523438,4204.3588867188,4205.0000000000,4177.9487304688,,,
1.6875000000,54,4178.2050781250,4174.1025390625,4182.0512695313,4162.4360351563,4184.4873046875,4196.4101562500,4177.9487304688,4174.7436523438,4197.3076171875,4205.5126953125,4224.6152343750,4198.2050781250,4205.5126953125,4169.6152343750,,,
1.6953125000,54,4171.1538085938,4157.6923828125,4168.3334960938,4151.1538085938,4180.1284179688,4190.8974609375,4181.7949218750,4175.3847656250,4187.0512695313,4200.7690429688,4212.0512695313,4186.5385742188,4210.0000000000,4158.2050781250,,,
1.7031250000,54,4177.0512695313,4169.8715820313,4182.5639648438,4165.5126953125,4192.5639648438,4201.1538085938,4172.9487304688,4172.4360351563,4198.3334960938,4205.1284179688,4219.6152343750,4187.9487304688,4207.1796875000,4161.1538085938,,,
1.7109375000,54,4183.0771484375,4173.3334960938,4185.7690429688,4165.3847656250,4184.6152343750,4195.1284179688,4179.7436523438,4172.5639648438,4194.3588867188,4193.4614257813,4218.3334960938,4190.3847656250,4202.1796875000,4168.2050781250,,,
1.7187500000,55,4179.8715820313,4165.1284179688,4177.0512695313,4159.7436523438,4183.3334960938,4194.1025390625,4176.2822265625,4168.7177734375,4191.2822265625,4196.7949218750,4208.8461914063,4188.3334960938,4203.2050781250,4170.2563476563,,,
1.7265625000,55,4185.6411132813,4163.7177734375,4178.4614257813,4161.6665039063,4187.1796875000,4191.6665039063,4178.2050781250,4175.2563476563,4187.4360351563,4197.6923828125,4209.7436523438,4189.6152343750,4198.9741210938,4169.1025390625,,,
1.7343750000,55,4188.8461914063,4174.7436523438,4190.2563476563,4168.9741210938,4189.1025390625,4197.5639648438,4180.8974609375,4173.5898437500,4206.1538085938,4210.3847656250,4228.9741210938,4195.3847656250,4216.7949218750,4181.1538085938,,,
1.7421875000,55,4190.8974609375,4173.2050781250,4192.5639648438,4167.6923828125,4186.6665039063,4199.8715820313,4186.0258789063,4172.4360351563,4213.8461914063,4215.6411132813,4226.1538085938,4200.0000000000,4219.7436523438,4177.3076171875,,,
1.7500000000,56,4185.0000000000,4176.5385742188,4194.8715820313,4172.1796875000,4190.5126953125,4195.8974609375,4173.7177734375,4173.7177734375,4213.0771484375,4220.6411132813,4229.1025390625,4202.5639648438,4222.5639648438,4185.1284179688,,,
1.7578125000,56,4182.8203125000,4165.8974609375,4186.7949218750,4165.1284179688,4180.6411132813,4182.1796875000,4179.3588867188,4172.9487304688,4209.6152343750,4218.4614257813,4223.2050781250,4195.1284179688,4218.5898437500,4187.9487304688,,,
1.7656250000,56,4188.2050781250,4173.5898437500,4193.4614257813,4172.8203125000,4189.6152343750,4190.3847656250,4179.1025390625,4169.2309570313,4211.4101562500,4222.6923828125,4224.1025390625,4193.3334960938,4215.7690429688,4184.4873046875,,,
1.7734375000,56,4190.5126953125,4180.1284179688,4193.9741210938,4173.9741210938,4188.9741210938,4188.4614257813,4180.8974609375,4172.8203125000,4205.0000000000,4219.2309570313,4222.8203125000,4198.4614257813,4211.0258789063,4182.6923828125,,,
1.7812500000,57,4183.4614257813,4170.8974609375,4185.2563476563,4170.1284179688,4182.3076171875,4186.1538085938,4175.8974609375,4170.3847656250,4207.0512695313,4213.9741210938,4217.1796875000,4197.3076171875,4209.2309570313,4185.8974609375,,,
1.7890625000,57,4181.2822265625,4166.1538085938,4187.3076171875,4172.0512695313,4183.3334960938,4188.5898437500,4174.2309570313,4172.4360351563,4204.8715820313,4207.0512695313,4219.1025390625,4198.2050781250,4212.6923828125,4181.6665039063,,,
1.7968750000,57,4186.6665039063,4178.3334960938,4194.3588867188,4178.4614257813,4190.0000000000,4195.2563476563,4177.9487304688,4174.8715820313,4205.3847656250,4214.1025390625,4229.6152343750,4202.6923828125,4222.4360351563,4184.1025390625,,,
1.8046875000,57,4192.0512695313,4187.5639648438,4195.5126953125,4184.2309570313,4197.1796875000,4204.8715820313,4177.0512695313,4169.2309570313,4211.5385742188,4225.6411132813,4231.5385742188,4204.4873046875,4224.3588867188,4186.0258789063,,,
1.8125000000,58,4195.1284179688,4186.0258789063,4195.0000000000,4183.4614257813,4198.3334960938,4204.4873046875,4182.0512695313,4171.9228515625,4208.4614257813,4212.9487304688,4227.3076171875,4204.2309570313,4220.5126953125,4187.8203125000,,,
1.8203125000,58,4190.1284179688,4187.1796875000,4197.1796875000,4184.6152343750,4199.4873046875,4202.1796875000,4182.6923828125,4175.1284179688,4211.6665039063,4209.4873046875,4227.1796875000,4203.4614257813,4215.0000000000,4191.9228515625,,,
1.8281250000,58,4186.9228515625,4181.6665039063,4189.8715820313,4181.7949218750,4192.0512695313,4194.2309570313,4179.8715820313,4175.0000000000,4203.8461914063,4211.1538085938,4220.8974609375,4200.2563476563,4202.6923828125,4178.3334960938,,,
1.8359375000,58,4181.1538085938,4176.4101562500,4183.0771484375,4177.1796875000,4188.9741210938,4192.1796875000,4174.4873046875,4171.1538085938,4203.9741210938,4212.8203125000,4223.8461914063,4198.3334960938,4214.1025390625,4182.8203125000,,,
1.8437500000,59,4181.6665039063,4168.7177734375,4178.2050781250,4166.2822265625,4186.5385742188,4190.2563476563,4180.8974609375,4174.1025390625,4204.8715820313,4210.2563476563,4213.0771484375,4191.5385742188,4203.3334960938,4189.4873046875,,,
1.8515625000,59,4179.8715820313,4181.5385742188,4184.8715820313,4173.7177734375,4193.3334960938,4192.3076171875,4171.2822265625,4173.3334960938,4206.9228515625,4218.7177734375,4217.1796875000,4188.4614257813,4196.4101562500,4186.2822265625,,,
1.8593750000,59,4176.2822265625,4173.8461914063,4176.1538085938,4167.9487304688,4180.5126953125,4177.6923828125,4176.1538085938,4173.0771484375,4196.7949218750,4211.5385742188,4212.0512695313,4187.4360351563,4207.5639648438,4176.5385742188,,,
1.8671875000,59,4174.4873046875,4167.9487304688,4174.3588867188,4168.3334960938,4184.1025390625,4183.8461914063,4172.9487304688,4170.0000000000,4198.2050781250,4211.0258789063,4204.4873046875,4185.6411132813,4214.3588867188,4176.6665039063,,,
1.8750000000,60,4184.7436523438,4178.0771484375,4184.6152343750,4175.8974609375,4190.0000000000,4188.0771484375,4177.3076171875,4176.5385742188,4195.5126953125,4209.3588867188,4211.0258789063,4191.7949218750,4199.3588867188,4179.6152343750,,,
1.8828125000,60,4185.6411132813,4186.1538085938,4189.8715820313,4182.3076171875,4188.3334960938,4185.6411132813,4177.1796875000,4173.9741210938,4205.1284179688,4217.5639648438,4224.6152343750,4200.0000000000,4202.9487304688,4195.0000000000,,,
1.8906250000,60,4180.2563476563,4172.8203125000,4178.5898437500,4175.2563476563,4180.7690429688,4176.9228515625,4174.8715820313,4171.4101562500,4200.0000000000,4212.4360351563,4214.6152343750,4197.6923828125,4208.4614257813,4188.2050781250,,,
1.8984375000,60,4177.3076171875,4176.0258789063,4179.2309570313,4173.3334960938,4183.2050781250,4174.4873046875,4171.6665039063,4175.0000000000,4189.3588867188,4206.6665039063,4221.7949218750,4197.6923828125,4223.7177734375,4185.2563476563,,,
1.9062500000,61,4180.1284179688,4182.9487304688,4184.4873046875,4176.1538085938,4187.4360351563,4178.9741210938,4177.8203125000,4174.4873046875,4194.4873046875,4208.8461914063,4225.1284179688,4198.5898437500,4218.5898437500,4193.3334960938,,,
1.9140625000,61,4184.3588867188,4186.9228515625,4187.6923828125,4181.0258789063,4193.5898437500,4187.3076171875,4174.4873046875,4171.9228515625,4201.4101562500,4204.3588867188,4216.6665039063,4193.5898437500,4197.0512695313,4189.2309570313,,,
1.9218750000,61,4183.8461914063,4183.5898437500,4182.0512695313,4176.9228515625,4188.8461914063,4183.2050781250,4174.7436523438,4172.3076171875,4204.1025390625,4205.3847656250,4223.3334960938,4190.5126953125,4214.1025390625,4181.6665039063,,,
1.9296875000,61,4183.7177734375,4178.4614257813,4181.7949218750,4180.3847656250,4186.2822265625,4183.7177734375,4177.5639648438,4172.1796875000,4204.2309570313,4214.4873046875,4225.5126953125,4191.1538085938,4224.1025390625,4181.4101562500,,,
1.9375000000,62,4180.8974609375,4184.6152343750,4191.4101562500,4192.5639648438,4189.8715820313,4186.0258789063,4172.1796875000,4172.8203125000,4195.7690429688,4205.5126953125,4218.3334960938,4192.6923828125,4197.5639648438,4185.8974609375,,,
1.9453125000,62,4181.1538085938,4175.7690429688,4185.6411132813,4181.4101562500,4182.1796875000,4178.4614257813,4178.7177734375,4174.8715820313,4191.7949218750,4189.6152343750,4210.8974609375,4189.8715820313,4191.6665039063,4188.0771484375,,,
1.9531250000,62,4180.1284179688,4172.8203125000,4181.5385742188,4176.6665039063,4187.8203125000,4192.6923828125,4173.5898437500,4168.8461914063,4205.2563476563,4202.3076171875,4214.1025390625,4185.6411132813,4222.1796875000,4184.3588867188,,,
1.9609375000,62,4176.9228515625,4176.4101562500,4179.1025390625,4177.3076171875,4186.0258789063,4191.9228515625,4178.3334960938,4171.2822265625,4198.5898437500,4197.5639648438,4212.4360351563,4184.1025390625,4224.1025390625,4174.4873046875,,,
1.9687500000,63,4171.6665039063,4181.4101562500,4181.5385742188,4179.3588867188,4187.3076171875,4186.0258789063,4178.9741210938,4170.0000000000,4204.7436523438,4200.0000000000,4221.5385742188,4189.6152343750,4218.7177734375,4187.6923828125,,,
1.9765625000,63,4176.7949218750,4172.4360351563,4179.2309570313,4172.4360351563,4187.6923828125,4185.0000000000,4179.1025390625,4171.4101562500,4198.5898437500,4200.3847656250,4222.5639648438,4190.0000000000,4219.1025390625,4186.5385742188,,,
1.9843750000,63,4174.1025390625,4175.5126953125,4179.4873046875,4172.6923828125,4189.8715820313,4189.1025390625,4170.7690429688,4171.4101562500,4191.5385742188,4197.3076171875,4223.9741210938,4185.6411132813,4226.2822265625,4182.9487304688,,,
1.9921875000,63,4172.3076171875,4171.1538085938,4177.5639648438,4172.9487304688,4183.4614257813,4182.4360351563,4177.0512695313,4172.6923828125,4195.7690429688,4193.0771484375,4210.5126953125,4183.9741210938,4213.2050781250,4178.4614257813,,,
2.0000000000,64,4174.7436523438,4175.2563476563,4187.3076171875,4179.2309570313,4187.8203125000,4183.5898437500,4171.4101562500,4171.4101562500,4205.0000000000,4201.0258789063,4218.5898437500,4190.2563476563,4217.5639648438,4180.0000000000,,,
2.0078125000,64,4176.5385742188,4169.2309570313,4183.8461914063,4171.1538085938,4177.0512695313,4173.8461914063,4176.7949218750,4175.2563476563,4195.5126953125,4200.5126953125,4226.1538085938,4192.4360351563,4230.2563476563,4180.7690429688,,,
2.0156250000,64,4176.6665039063,4170.6411132813,4185.5126953125,4179.2309570313,4178.8461914063,4179.3588867188,4172.6923828125,4174.6152343750,4197.1796875000,4208.3334960938,4221.7949218750,4187.4360351563,4237.9487304688,4183.3334960938,,,
2.0234375000,64,4181.1538085938,4182.8203125000,4194.8715820313,4186.5385742188,4185.5126953125,4183.0771484375,4172.9487304688,4175.0000000000,4201.9228515625,4208.2050781250,4217.9487304688,4188.5898437500,4227.3076171875,4187.6923828125,,,
2.0312500000,65,4181.6665039063,4184.1025390625,4191.1538085938,4174.2309570313,4183.2050781250,4179.8715820313,4179.7436523438,4172.8203125000,4206.0258789063,4207.5639648438,4219.1025390625,4191.5385742188,4218.8461914063,4196.7949218750,,,
2.0390625000,65,4179.4873046875,4176.0258789063,4187.3076171875,4171.5385742188,4184.6152343750,4186.6665039063,4178.8461914063,4170.2563476563,4206.7949218750,4213.5898437500,4216.5385742188,4188.4614257813,4228.7177734375,4189.1025390625,,,
2.0468750000,65,4179.2309570313,4175.8974609375,4191.2822265625,4177.1796875000,4183.9741210938,4189.1025390625,4180.7690429688,4173.2050781250,4204.8715820313,4208.4614257813,4218.7177734375,4184.3588867188,4245.5126953125,4183.4614257813,,,
2.0546875000,65,4176.5385742188,4181.1538085938,4190.1284179688,4177.8203125000,4184.3588867188,4186.0258789063,4183.4614257813,4172.8203125000,4210.5126953125,4205.5126953125,4217.0512695313,4184.7436523438,4237.6923828125,4193.5898437500,,,
2.0625000000,66,4181.4101562500,4187.1796875000,4190.3847656250,4183.7177734375,4189.7436523438,4188.0771484375,4180.8974609375,4174.2309570313,4202.1796875000,4203.5898437500,4211.6665039063,4187.5639648438,4220.0000000000,4192.6923828125,,,
2.0703125000,66,4182.8203125000,4188.3334960938,4193.3334960938,4187.6923828125,4192.6923828125,4191.6665039063,4174.8715820313,4172.3076171875,4201.4101562500,4206.5385742188,4227.1796875000,4190.8974609375,4236.5385742188,4194.2309570313,,,
2.0781250000,66,4180.6411132813,4171.9228515625,4183.0771484375,4175.7690429688,4184.4873046875,4182.6923828125,4180.0000000000,4171.6665039063,4198.9741210938,4198.0771484375,4221.6665039063,4189.3588867188,4231.2822265625,4187.5639648438,,,
2.0859375000,66,4173.7177734375,4175.5126953125,4187.3076171875,4181.1538085938,4185.5126953125,4180.1284179688,4171.4101562500,4171.9228515625,4189.7436523438,4192.8203125000,4212.9487304688,4186.4101562500,4218.5898437500,4179.3588867188,,,
2.0937500000,67,4178.2050781250,4174.4873046875,4185.7690429688,4177.1796875000,4175.0000000000,4172.5639648438,4177.0512695313,4173.2050781250,4173.0771484375,4184.7436523438,4203.7177734375,4180.2563476563,4209.3588867188,4177.9487304688,,,
2.1015625000,67,4183.7177734375,4177.8203125000,4183.5898437500,4178.8461914063,4182.4360351563,4181.0258789063,4171.6665039063,4169.6152343750,4177.6923828125,4188.9741210938,4207.9487304688,4179.8715820313,4213.4614257813,4189.7436523438,,,
2.1093750000,67,4182.4360351563,4179.3588867188,4178.3334960938,4175.8974609375,4182.3076171875,4174.7436523438,4174.4873046875,4172.8203125000,4174.1025390625,4182.3076171875,4210.1284179688,4182.9487304688,4217.3076171875,4186.4101562500,,,
2.1171875000,67,4175.5126953125,4183.2050781250,4180.2563476563,4175.8974609375,4180.1284179688,4172.3076171875,4172.3076171875,4168.0771484375,4182.6923828125,4191.5385742188,4211.2822265625,4183.9741210938,4226.0258789063,4184.3588867188,,,
2.1250000000,68,4182.0512695313,4182.4360351563,4185.8974609375,4179.2309570313,4182.8203125000,4176.1538085938,4174.7436523438,4169.8715820313,4184.3588867188,4194.8715820313,4203.0771484375,4180.7690429688,4213.9741210938,4179.7436523438,,,
2.1328125000,68,4190.8974609375,4188.9741210938,4191.5385742188,4186.2822265625,4189.6152343750,4181.5385742188,4172.8203125000,4172.6923828125,4185.5126953125,4192.8203125000,4208.4614257813,4182.9487304688,4210.0000000000,4191.4101562500,,,
2.1406250000,68,4193.9741210938,4184.2309570313,4188.4614257813,4181.9228515625,4184.2309570313,4180.5126953125,4174.8715820313,4170.6411132813,4192.1796875000,4196.6665039063,4208.9741210938,4188.4614257813,4217.4360351563,4195.8974609375,,,
2.1484375000,68,4195.8974609375,4192.5639648438,4199.6152343750,4189.6152343750,4191.7949218750,4186.4101562500,4170.6411132813,4170.5126953125,4194.2309570313,4203.9741210938,4220.7690429688,4196.2822265625,4235.6411132813,4192.8203125000,,,
2.1562500000,69,4192.6923828125,4197.4360351563,4202.4360351563,4193.5898437500,4190.3847656250,4181.9228515625,4174.2309570313,4171.5385742188,4190.5126953125,4202.3076171875,4231.6665039063,4200.3847656250,4244.1025390625,4196.2822265625,,,
2.1640625000,69,4188.2050781250,4189.1025390625,4190.6411132813,4189.1025390625,4181.2822265625,4181.0258789063,4174.4873046875,4168.3334960938,4187.9487304688,4196.7949218750,4211.6665039063,4195.1284179688,4215.1284179688,4190.1284179688,,,
2.1718750000,69,4186.2822265625,4192.6923828125,4192.1796875000,4191.6665039063,4184.4873046875,4185.6411132813,4169.6152343750,4170.6411132813,4181.2822265625,4188.2050781250,4200.0000000000,4189.8715820313,4195.5126953125,4179.7436523438,,,
2.1796875000,69,4185.8974609375,4187.9487304688,4191.6665039063,4185.5126953125,4182.8203125000,4180.6411132813,4179.7436523438,4173.5898437500,4178.8461914063,4178.2050781250,4205.2563476563,4189.4873046875,4208.5898437500,4181.2822265625,,,
2.1875000000,70,4182.4360351563,4182.8203125000,4190.7690429688,4183.5898437500,4185.5126953125,4186.6665039063,4175.8974609375,4167.8203125000,4189.8715820313,4188.8461914063,4210.0000000000,4194.3588867188,4215.7690429688,4183.8461914063,,,
2.1953125000,70,4182.1796875000,4181.2822265625,4192.9487304688,4178.5898437500,4180.6411132813,4183.0771484375,4175.8974609375,4171.0258789063,4183.8461914063,4191.2822265625,4206.5385742188,4195.3847656250,4204.7436523438,4180.1284179688,,,
2.2031250000,70,4177.6923828125,4180.6411132813,4191.6665039063,4174.7436523438,4179.1025390625,4181.1538085938,4175.1284179688,4168.9741210938,4187.9487304688,4195.0000000000,4203.5898437500,4189.3588867188,4204.7436523438,4186.0258789063,,,
2.2109375000,70,4176.5385742188,4173.2050781250,4179.6152343750,4170.6411132813,4176.0258789063,4181.2822265625,4178.4614257813,4169.6152343750,4186.4101562500,4188.2050781250,4190.8974609375,4184.3588867188,4192.0512695313,4175.0000000000,,,
2.2187500000,71,4172.5639648438,4176.6665039063,4177.3076171875,4173.0771484375,4177.4360351563,4185.5126953125,4173.9741210938,4170.2563476563,4190.7690429688,4191.5385742188,4199.7436523438,4185.2563476563,4200.0000000000,4171.7949218750,,,
2.2265625000,71,4173.5898437500,4166.5385742188,4173.0771484375,4164.7436523438,4172.5639648438,4179.6152343750,4180.1284179688,4170.5126953125,4188.5898437500,4190.0000000000,4191.6665039063,4179.8715820313,4202.0512695313,4168.2050781250,,,
2.2343750000,71,4172.9487304688,4170.1284179688,4180.2563476563,4167.5639648438,4180.3847656250,4182.0512695313,4172.5639648438,4167.3076171875,4192.9487304688,4190.7690429688,4187.5639648438,4179.6152343750,4184.2309570313,4171.2822265625,,,
2.2421875000,71,4174.3588867188,4168.0771484375,4180.5126953125,4162.8203125000,4171.6665039063,4171.0258789063,4175.1284179688,4171.0258789063,4193.2050781250,4189.4873046875,4190.8974609375,4183.5898437500,4168.8461914063,4171.9228515625,,,
2.2500000000,72,4175.5126953125,4173.2050781250,4183.3334960938,4170.7690429688,4172.0512695313,4171.0258789063,4171.7949218750,4170.8974609375,4193.7177734375,4195.2563476563,4200.1284179688,4182.8203125000,4196.0258789063,4170.3847656250,,,
2.2578125000,72,4178.7177734375,4180.8974609375,4185.1284179688,4177.9487304688,4176.2822265625,4173.0771484375,4177.0512695313,4170.0000000000,4184.3588867188,4189.3588867188,4200.5126953125,4181.6665039063,4210.7690429688,4164.7436523438,,,
2.2656250000,72,4178.4614257813,4177.8203125000,4180.1284179688,4171.1538085938,4175.8974609375,4173.9741210938,4177.4360351563,4166.7949218750,4186.0258789063,4193.0771484375,4194.7436523438,4183.2050781250,4197.5639648438,4169.2309570313,,,
2.2734375000,72,4177.0512695313,4169.7436523438,4174.3588867188,4164.2309570313,4171.5385742188,4171.7949218750,4171.4101562500,4169.6152343750,4181.5385742188,4191.0258789063,4184.1025390625,4184.4873046875,4187.6923828125,4167.9487304688,,,
2.2812500000,73,4173.4614257813,4172.6923828125,4175.5126953125,4166.4101562500,4167.4360351563,4166.4101562500,4172.8203125000,4170.5126953125,4167.8203125000,4174.8715820313,4188.3334960938,4183.5898437500,4192.8203125000,4170.5126953125,,,
2.2890625000,73,4169.1025390625,4166.7949218750,4173.3334960938,4164.1025390625,4163.5898437500,4164.2309570313,4176.0258789063,4163.2050781250,4172.0512695313,4176.4101562500,4193.0771484375,4183.0771484375,4183.5898437500,4173.8461914063,,,
2.2968750000,73,4172.9487304688,4162.0512695313,4170.7690429688,4164.2309570313,4163.4614257813,4163.9741210938,4174.8715820313,4165.6411132813,4170.0000000000,4182.5639648438,4185.0000000000,4184.1025390625,4175.6411132813,4163.9741210938,,,
2.3046875000,73,4176.0258789063,4178.8461914063,4181.4101562500,4180.2563476563,4174.8715820313,4170.0000000000,4176.4101562500,4169.6152343750,4176.2822265625,4191.7949218750,4192.9487304688,4193.3334960938,4198.3334960938,4175.7690429688,,,
2.3125000000,74,4187.3076171875,4186.6665039063,4193.5898437500,4192.6923828125,4186.0258789063,4182.1796875000,4182.9487304688,4171.6665039063,4193.9741210938,4200.3847656250,4201.5385742188,4200.8974609375,4197.9487304688,4193.5898437500,,,
2.3203125000,74,4197.0512695313,4197.8203125000,4203.3334960938,4199.3588867188,4196.0258789063,4195.3847656250,4173.7177734375,4171.7949218750,4208.0771484375,4212.6923828125,4213.7177734375,4205.5126953125,4199.4873046875,4203.5898437500,,,
2.3281250000,74,4198.5898437500,4192.1796875000,4192.5639648438,4187.4360351563,4186.0258789063,4186.4101562500,4181.2822265625,4172.3076171875,4200.8974609375,4212.4360351563,4206.0258789063,4204.3588867188,4210.0000000000,4199.8715820313,,,
2.3359375000,74,4189.8715820313,4183.2050781250,4187.5639648438,4186.7949218750,4189.2309570313,4185.7690429688,4176.6665039063,4166.6665039063,4194.2309570313,4211.9228515625,4196.5385742188,4197.5639648438,4208.7177734375,4194.4873046875,,,
2.3437500000,75,4185.6411132813,4172.3076171875,4184.2309570313,4180.6411132813,4183.5898437500,4176.2822265625,4176.5385742188,4170.2563476563,4182.3076171875,4196.4101562500,4187.9487304688,4191.0258789063,4190.8974609375,4187.9487304688,,,
2.3515625000,75,4180.6411132813,4172.8203125000,4179.6152343750,4174.8715820313,4180.1284179688,4174.8715820313,4173.9741210938,4165.8974609375,4192.9487304688,4198.4614257813,4186.0258789063,4186.5385742188,4188.7177734375,4187.0512695313,,,
2.3593750000,75,4180.3847656250,4173.4614257813,4173.0771484375,4172.8203125000,4176.0258789063,4174.3588867188,4180.3847656250,4166.0258789063,4188.8461914063,4193.7177734375,4176.4101562500,4183.2050781250,4178.8461914063,4173.5898437500,,,
2.3671875000,75,4180.3847656250,4180.2563476563,4178.9741210938,4179.7436523438,4175.3847656250,4173.4614257813,4176.4101562500,4167.0512695313,4177.1796875000,4183.0771484375,4186.7949218750,4186.5385742188,4186.2822265625,4179.4873046875,,,
2.3750000000,76,4180.3847656250,4166.1538085938,4176.2822265625,4166.5385742188,4172.1796875000,4169.4873046875,4177.1796875000,4167.4360351563,4172.8203125000,4177.4360351563,4182.8203125000,4183.8461914063,4185.0000000000,4179.6152343750,,,
2.3828125000,76,4177.3076171875,4160.0000000000,4169.8715820313,4159.3588867188,4177.1796875000,4172.6923828125,4172.9487304688,4171.7949218750,4174.2309570313,4179.8715820313,4171.1538085938,4176.7949218750,4166.4101562500,4170.7690429688,,,
2.3906250000,76,4175.5126953125,4171.1538085938,4170.6411132813,4174.2309570313,4172.3076171875,4166.0258789063,4176.4101562500,4174.4873046875,4170.3847656250,4177.1796875000,4169.1025390625,4181.5385742188,4156.5385742188,4171.2822265625,,,
2.3984375000,76,4180.2563476563,4190.5126953125,4184.1025390625,4205.7690429688,4171.5385742188,4167.4360351563,4175.7690429688,4169.7436523438,4170.1284179688,4174.7436523438,4167.1796875000,4189.7436523438,4160.6411132813,4173.8461914063,,,
2.4062500000,77,4183.4614257813,4200.2563476563,4189.7436523438,4225.2563476563,4175.5126953125,4168.8461914063,4174.6152343750,4171.2822265625,4171.0258789063,4170.3847656250,4153.9741210938,4184.8715820313,4163.9741210938,4171.9228515625,,,
2.4140625000,77,4184.2309570313,4192.6923828125,4182.4360351563,4226.9228515625,4173.4614257813,4160.8974609375,4177.6923828125,4173.4614257813,4172.9487304688,4167.3076171875,4135.1284179688,4179.4873046875,4155.5126953125,4172.5639648438,,,
2.4218750000,77,4183.7177734375,4191.7949218750,4184.6152343750,4233.9741210938,4174.6152343750,4158.8461914063,4170.3847656250,4168.5898437500,4171.9228515625,4168.9741210938,4134.1025390625,4182.5639648438,4147.8203125000,4169.8715820313,,,
2.4296875000,77,4180.3847656250,4183.2050781250,4178.9741210938,4221.6665039063,4163.7177734375,4150.5126953125,4177.5639648438,4171.6665039063,4161.9228515625,4161.1538085938,4131.9228515625,4177.3076171875,4150.2563476563,4161.0258789063,,,
2.4375000000,78,4171.1538085938,4177.9487304688,4171.9228515625,4209.6152343750,4166.7949218750,4159.2309570313,4174.4873046875,4169.6152343750,4172.3076171875,4170.3847656250,4126.1538085938,4168.7177734375,4160.7690429688,4160.3847656250,,,
2.4453125000,78,4180.8974609375,4189.7436523438,4178.2050781250,4215.6411132813,4178.3334960938,4171.9228515625,4174.8715820313,4170.1284179688,4169.8715820313,4168.4614257813,4126.2822265625,4171.1538085938,4153.8461914063,4159.1025390625,,,
2.4531250000,78,4190.5126953125,4203.5898437500,4190.5126953125,4227.9487304688,4183.3334960938,4175.7690429688,4178.0771484375,4169.7436523438,4173.2050781250,4172.9487304688,4141.5385742188,4180.6411132813,4158.2050781250,4176.4101562500,,,
2.4609375000,78,4190.0000000000,4187.4360351563,4185.8974609375,4221.6665039063,4177.5639648438,4167.6923828125,4182.5639648438,4170.7690429688,4175.5126953125,4172.4360351563,4136.0258789063,4182.5639648438,4153.3334960938,4176.7949218750,,,
2.4687500000,79,4186.5385742188,4196.9228515625,4192.1796875000,4228.0771484375,4188.3334960938,4174.1025390625,4171.5385742188,4167.6923828125,4180.7690429688,4171.6665039063,4150.1284179688,4187.0512695313,4171.5385742188,4176.5385742188,,,
2.4765625000,79,4188.5898437500,4203.8461914063,4189.6152343750,4228.9741210938,4181.1538085938,4169.2309570313,4181.2822265625,4169.8715820313,4175.3847656250,4167.8203125000,4149.4873046875,4186.4101562500,4177.0512695313,4178.4614257813,,,
2.4843750000,79,4184.3588867188,4198.2050781250,4187.8203125000,4229.7436523438,4181.1538085938,4171.7949218750,4174.6152343750,4171.4101562500,4166.5385742188,4169.1025390625,4127.5639648438,4178.9741210938,4148.3334960938,4172.4360351563,,,
2.4921875000,79,4180.1284179688,4189.3588867188,4185.7690429688,4223.2050781250,4180.5126953125,4167.3076171875,4172.9487304688,4174.2309570313,4153.3334960938,4153.9741210938,4124.1025390625,4174.6152343750,4135.2563476563,4161.5385742188,,,
2.5000000000,80,4179.8715820313,4191.4101562500,4186.0258789063,4224.2309570313,4180.2563476563,4168.7177734375,4178.4614257813,4167.8203125000,4168.9741210938,4159.4873046875,4142.1796875000,4174.6152343750,4163.8461914063,4169.8715820313,,,
2.5078125000,80,4181.9228515625,4193.7177734375,4188.8461914063,4227.3076171875,4182.1796875000,4174.1025390625,4178.5898437500,4167.3076171875,4180.6411132813,4171.4101562500,4140.8974609375,4177.1796875000,4166.9228515625,4168.2050781250,,,
2.5156250000,80,4179.2309570313,4191.9228515625,4187.8203125000,4221.0258789063,4181.5385742188,4170.1284179688,4176.7949218750,4171.2822265625,4173.5898437500,4167.4360351563,4136.0258789063,4176.1538085938,4156.0258789063,4166.2822265625,,,
2.5234375000,80,4175.7690429688,4181.7949218750,4180.5126953125,4213.7177734375,4175.6411132813,4163.9741210938,4178.5898437500,4165.7690429688,4171.0258789063,4167.0512695313,4130.7690429688,4169.2309570313,4156.1538085938,4166.7949218750,,,
2.5312500000,81,4178.8461914063,4183.3334960938,4184.4873046875,4218.3334960938,4174.8715820313,4163.3334960938,4175.0000000000,4167.1796875000,4169.1025390625,4171.5385742188,4136.4101562500,4171.1538085938,4158.5898437500,4164.4873046875,,,
2.5390625000,81,4177.9487304688,4185.1284179688,4186.7949218750,4217.4360351563,4175.1284179688,4159.4873046875,4174.3588867188,4172.0512695313,4175.0000000000,4177.0512695313,4149.4873046875,4178.0771484375,4160.5126953125,4168.0771484375,,,
2.5468750000,81,4175.0000000000,4172.1796875000,4175.3847656250,4207.0512695313,4172.6923828125,4160.3847656250,4177.4360351563,4169.7436523438,4176.0258789063,4173.5898437500,4134.3588867188,4170.2563476563,4142.0512695313,4156.6665039063,,,
2.5546875000,81,4175.2563476563,4180.5126953125,4180.0000000000,4214.1025390625,4182.1796875000,4173.7177734375,4170.0000000000,4167.3076171875,4176.2822265625,4174.7436523438,4135.7690429688,4171.0258789063,4148.4614257813,4155.0000000000,,,
2.5625000000,82,4183.8461914063,4184.4873046875,4186.1538085938,4216.5385742188,4182.5639648438,4170.3847656250,4177.4360351563,4171.7949218750,4176.0258789063,4179.1025390625,4152.3076171875,4184.3588867188,4178.5898437500,4164.6152343750,,,
2.5703125000,82,4185.2563476563,4189.2309570313,4192.5639648438,4220.7690429688,4190.3847656250,4174.4873046875,4171.0258789063,4167.9487304688,4179.8715820313,4189.6152343750,4160.5126953125,4188.7177734375,4179.1025390625,4173.0771484375,,,
2.5781250000,82,4183.3334960938,4186.4101562500,4186.9228515625,4212.4360351563,4185.8974609375,4173.5898437500,4175.6411132813,4169.6152343750,4168.3334960938,4180.1284179688,4148.2050781250,4183.4614257813,4151.5385742188,4170.5126953125,,,
2.5859375000,82,4176.9228515625,4187.0512695313,4182.4360351563,4213.8461914063,4186.9228515625,4181.4101562500,4174.3588867188,4168.8461914063,4182.5639648438,4192.6923828125,4152.9487304688,4182.0512695313,4170.1284179688,4167.5639648438,,,
2.5937500000,83,4176.9228515625,4187.0512695313,4182.9487304688,4218.4614257813,4181.1538085938,4178.2050781250,4175.6411132813,4173.0771484375,4188.2050781250,4200.3847656250,4157.3076171875,4183.5898437500,4186.0258789063,4158.0771484375,,,
2.6015625000,83,4177.1796875000,4193.7177734375,4190.1284179688,4219.2309570313,4178.8461914063,4173.7177734375,4173.0771484375,4171.4101562500,4184.7436523438,4197.9487304688,4163.5898437500,4188.2050781250,4181.7949218750,4172.0512695313,,,
2.6093750000,83,4181.9228515625,4186.2822265625,4186.1538085938,4210.5126953125,4176.4101562500,4169.1025390625,4177.9487304688,4168.7177734375,4175.5126953125,4187.6923828125,4150.8974609375,4183.5898437500,4164.8715820313,4167.9487304688,,,
2.6171875000,83,4180.6411132813,4189.6152343750,4186.2822265625,4215.1284179688,4180.0000000000,4170.0000000000,4169.4873046875,4169.7436523438,4169.2309570313,4177.4360351563,4151.5385742188,4174.8715820313,4165.7690429688,4153.2050781250,,,
2.6250000000,84,4172.6923828125,4183.9741210938,4181.0258789063,4210.8974609375,4171.6665039063,4161.2822265625,4173.5898437500,4174.3588867188,4163.3334960938,4163.5898437500,4149.1025390625,4174.6152343750,4158.8461914063,4154.8715820313,,,
2.6328125000,84,4169.6152343750,4176.5385742188,4179.1025390625,4206.6665039063,4173.9741210938,4163.8461914063,4174.4873046875,4171.6665039063,4164.7436523438,4163.8461914063,4134.6152343750,4174.4873046875,4143.0771484375,4153.3334960938,,,
2.6406250000,84,4175.5126953125,4184.2309570313,4183.0771484375,4201.2822265625,4178.5898437500,4168.9741210938,4174.3588867188,4170.3847656250,4167.3076171875,4170.6411132813,4136.9228515625,4171.5385742188,4150.2563476563,4145.6411132813,,,
2.6484375000,84,4180.2563476563,4191.1538085938,4181.9228515625,4200.5126953125,4176.0258789063,4172.0512695313,4176.9228515625,4173.5898437500,4166.7949218750,4171.4101562500,4143.9741210938,4174.3588867188,4166.2822265625,4150.3847656250,,,
2.6562500000,85,4177.1796875000,4198.9741210938,4184.3588867188,4219.4873046875,4178.9741210938,4172.6923828125,4169.1025390625,4174.6152343750,4161.7949218750,4165.5126953125,4139.6152343750,4178.4614257813,4153.8461914063,4148.5898437500,,,
2.6640625000,85,4175.6411132813,4199.7436523438,4185.5126953125,4223.8461914063,4171.6665039063,4159.3588867188,4172.4360351563,4175.3847656250,4155.6411132813,4161.5385742188,4135.7690429688,4173.0771484375,4137.1796875000,4146.5385742188,,,
2.6718750000,85,4173.0771484375,4189.2309570313,4180.1284179688,4211.2822265625,4168.0771484375,4160.3847656250,4174.4873046875,4170.0000000000,4169.4873046875,4174.8715820313,4139.4873046875,4167.8203125000,4158.9741210938,4153.9741210938,,,
2.6796875000,85,4174.8715820313,4182.3076171875,4173.9741210938,4201.9228515625,4168.9741210938,4165.1284179688,4176.6665039063,4172.4360351563,4168.4614257813,4166.7949218750,4137.8203125000,4169.2309570313,4174.6152343750,4144.3588867188,,,
2.6875000000,86,4172.9487304688,4195.6411132813,4180.3847656250,4209.8715820313,4177.6923828125,4171.2822265625,4174.7436523438,4171.7949218750,4177.0512695313,4175.0000000000,4150.7690429688,4173.8461914063,4170.0000000000,4150.5126953125,,,
2.6953125000,86,4178.5898437500,4198.0771484375,4181.4101562500,4210.0000000000,4180.5126953125,4172.8203125000,4182.0512695313,4172.6923828125,4187.9487304688,4192.3076171875,4150.2563476563,4170.2563476563,4156.5385742188,4154.3588867188,,,
2.7031250000,86,4178.5898437500,4206.9228515625,4185.6411132813,4215.3847656250,4187.8203125000,4177.6923828125,4175.8974609375,4173.9741210938,4192.0512695313,4195.6411132813,4156.4101562500,4167.8203125000,4179.3588867188,4150.3847656250,,,
2.7109375000,86,4175.0000000000,4197.4360351563,4177.1796875000,4208.9741210938,4183.0771484375,4171.6665039063,4180.7690429688,4176.5385742188,4180.5126953125,4180.7690429688,4150.0000000000,4170.1284179688,4177.4360351563,4147.0512695313,,,
2.7187500000,87,4171.0258789063,4191.4101562500,4175.2563476563,4206.7949218750,4187.9487304688,4177.0512695313,4171.6665039063,4172.1796875000,4178.3334960938,4181.2822265625,4140.8974609375,4171.0258789063,4150.2563476563,4151.2822265625,,,
2.7265625000,87,4169.2309570313,4186.0258789063,4170.6411132813,4198.0771484375,4174.3588867188,4162.8203125000,4174.7436523438,4174.4873046875,4172.1796875000,4169.3588867188,4136.0258789063,4167.3076171875,4152.8203125000,4141.4101562500,,,
2.7343750000,87,4168.8461914063,4185.6411132813,4168.0771484375,4199.6152343750,4168.9741210938,4162.8203125000,4175.8974609375,4173.2050781250,4179.4873046875,4170.2563476563,4140.1284179688,4167.0512695313,4173.2050781250,4144.4873046875,,,
2.7421875000,87,4175.5126953125,4186.9228515625,4170.1284179688,4202.6923828125,4177.0512695313,4174.3588867188,4173.7177734375,4174.8715820313,4173.3334960938,4168.9741210938,4134.3588867188,4169.4873046875,4156.7949218750,4148.7177734375,,,
2.7500000000,88,4172.9487304688,4188.4614257813,4167.5639648438,4188.2050781250,4175.5126953125,4167.3076171875,4173.8461914063,4175.2563476563,4156.5385742188,4151.0258789063,4133.9741210938,4165.3847656250,4148.9741210938,4147.3076171875,,,
2.7578125000,88,4167.6923828125,4178.8461914063,4162.3076171875,4177.1796875000,4172.8203125000,4163.3334960938,4179.3588867188,4171.1538085938,4155.0000000000,4144.8715820313,4133.5898437500,4159.1025390625,4152.6923828125,4138.3334960938,,,
2.7656250000,88,4173.5898437500,4180.3847656250,4167.8203125000,4185.8974609375,4184.4873046875,4176.2822265625,4177.3076171875,4169.8715820313,4162.8203125000,4156.0258789063,4139.7436523438,4163.2050781250,4151.5385742188,4136.4101562500,,,
2.7734375000,88,4171.4101562500,4182.0512695313,4162.9487304688,4182.3076171875,4182.0512695313,4173.3334960938,4175.0000000000,4170.6411132813,4169.3588867188,4163.0771484375,4144.2309570313,4163.4614257813,4155.8974609375,4143.5898437500,,,
2.7812500000,89,4165.5126953125,4170.3847656250,4156.2822265625,4176.4101562500,4171.2822265625,4161.9228515625,4175.1284179688,4172.4360351563,4169.6152343750,4160.1284179688,4133.7177734375,4157.5639648438,4149.4873046875,4138.4614257813,,,
2.7890625000,89,4165.7690429688,4178.9741210938,4168.0771484375,4189.8715820313,4178.5898437500,4166.1538085938,4170.3847656250,4173.7177734375,4177.3076171875,4174.7436523438,4142.3076171875,4161.5385742188,4153.3334960938,4137.6923828125,,,
2.7968750000,89,4167.1796875000,4181.4101562500,4163.3334960938,4188.7177734375,4179.7436523438,4169.8715820313,4177.0512695313,4175.7690429688,4178.9741210938,4188.4614257813,4145.5126953125,4162.8203125000,4161.2822265625,4137.1796875000,,,
2.8046875000,89,4162.5639648438,4175.5126953125,4157.1796875000,4185.2563476563,4182.5639648438,4175.2563476563,4169.1025390625,4173.2050781250,4178.3334960938,4185.8974609375,4141.0258789063,4159.6152343750,4154.8715820313,4135.3847656250,,,
2.8125000000,90,4166.0258789063,4168.4614257813,4157.9487304688,4178.3334960938,4173.4614257813,4162.0512695313,4174.4873046875,4176.1538085938,4172.0512695313,4168.5898437500,4137.3076171875,4161.0258789063,4143.0771484375,4137.6923828125,,,
2.8203125000,90,4167.3076171875,4176.9228515625,4164.4873046875,4185.1284179688,4178.8461914063,4166.2822265625,4173.2050781250,4171.5385742188,4183.8461914063,4182.0512695313,4147.5639648438,4164.8715820313,4162.8203125000,4150.5126953125,,,
2.8281250000,90,4171.9228515625,4175.0000000000,4164.4873046875,4194.1025390625,4181.0258789063,4172.3076171875,4176.1538085938,4171.7949218750,4176.5385742188,4183.2050781250,4148.5898437500,4165.7690429688,4174.1025390625,4145.5126953125,,,
2.8359375000,90,4170.3847656250,4171.6665039063,4170.7690429688,4197.5639648438,4176.7949218750,4168.5898437500,4171.0258789063,4170.1284179688,4176.9228515625,4181.1538085938,4156.5385742188,4168.7177734375,4179.4873046875,4153.4614257813,,,
2.8437500000,91,4167.4360351563,4167.1796875000,4170.6411132813,4187.4360351563,4168.7177734375,4159.3588867188,4172.3076171875,4172.4360351563,4179.3588867188,4180.7690429688,4151.2822265625,4170.6411132813,4165.7690429688,4158.4614257813,,,
2.8515625000,91,4168.3334960938,4182.9487304688,4174.6152343750,4194.1025390625,4177.4360351563,4165.8974609375,4169.6152343750,4173.9741210938,4179.2309570313,4179.2309570313,4159.4873046875,4175.1284179688,4171.5385742188,4160.0000000000,,,
2.8593750000,91,4170.8974609375,4178.7177734375,4170.3847656250,4191.1538085938,4174.3588867188,4162.5639648438,4177.3076171875,4172.5639648438,4175.3847656250,4171.0258789063,4154.6152343750,4174.3588867188,4181.6665039063,4154.3588867188,,,
2.8671875000,91,4165.7690429688,4165.3847656250,4166.5385742188,4185.7690429688,4170.5126953125,4161.0258789063,4168.9741210938,4171.1538085938,4171.4101562500,4163.0771484375,4134.4873046875,4164.3588867188,4164.1025390625,4144.2309570313,,,
2.8750000000,92,4161.9228515625,4159.6152343750,4160.1284179688,4177.6923828125,4163.8461914063,4155.0000000000,4168.7177734375,4174.1025390625,4159.3588867188,4142.9487304688,4125.8974609375,4158.7177734375,4135.3847656250,4138.8461914063,,,
2.8828125000,92,4165.5126953125,4161.1538085938,4155.6411132813,4172.5639648438,4166.7949218750,4158.5898437500,4176.5385742188,4172.9487304688,4160.6411132813,4140.6411132813,4127.3076171875,4159.7436523438,4137.5639648438,4141.2822265625,,,
2.8906250000,92,4166.0258789063,4169.8715820313,4160.6411132813,4179.1025390625,4177.1796875000,4164.8715820313,4171.4101562500,4172.3076171875,4163.8461914063,4147.1796875000,4127.4360351563,4159.7436523438,4150.2563476563,4135.5126953125,,,
2.8984375000,92,4166.0258789063,4169.8715820313,4160.5126953125,4176.6665039063,4168.9741210938,4155.7690429688,4173.0771484375,4174.3588867188,4155.6411132813,4138.4614257813,4127.5639648438,4158.8461914063,4143.0771484375,4135.6411132813,,,
2.9062500000,93,4163.5898437500,4162.3076171875,4156.5385742188,4170.2563476563,4164.6152343750,4158.7177734375,4173.0771484375,4169.4873046875,4160.1284179688,4148.4614257813,4128.9741210938,4158.4614257813,4140.2563476563,4141.6665039063,,,
2.9140625000,93,4164.4873046875,4161.0258789063,4155.2563476563,4167.9487304688,4163.9741210938,4161.2822265625,4172.6923828125,4171.7949218750,4159.3588867188,4155.5126953125,4129.1025390625,4157.1796875000,4145.8974609375,4136.5385742188,,,
2.9218750000,93,4167.6923828125,4174.7436523438,4160.5126953125,4173.5898437500,4163.8461914063,4159.8715820313,4168.9741210938,4170.7690429688,4170.5126953125,4164.7436523438,4143.5898437500,4162.5639648438,4164.3588867188,4147.8203125000,,,
2.9296875000,93,4177.6923828125,4174.8715820313,4162.8203125000,4172.6923828125,4162.4360351563,4160.2563476563,4171.9228515625,4170.7690429688,4175.2563476563,4170.3847656250,4140.0000000000,4163.3334960938,4160.3847656250,4151.7949218750,,,
2.9375000000,94,4177.9487304688,4182.3076171875,4171.2822265625,4183.3334960938,4170.6411132813,4168.5898437500,4164.6152343750,4172.5639648438,4177.6923828125,4177.1796875000,4148.7177734375,4163.8461914063,4168.2050781250,4155.3847656250,,,
2.9453125000,94,4177.9487304688,4178.9741210938,4164.4873046875,4182.6923828125,4163.5898437500,4158.2050781250,4170.8974609375,4177.4360351563,4178.4614257813,4177.4360351563,4151.9228515625,4166.9228515625,4173.8461914063,4153.8461914063,,,
2.9531250000,94,4180.8974609375,4187.3076171875,4169.6152343750,4190.7690429688,4173.0771484375,4165.1284179688,4163.0771484375,4175.2563476563,4189.1025390625,4186.6665039063,4152.8203125000,4170.6411132813,4172.8203125000,4156.0258789063,,,
2.9609375000,94,4183.9741210938,4189.4873046875,4172.3076171875,4190.8974609375,4173.8461914063,4168.0771484375,4170.6411132813,4177.1796875000,4189.2309570313,4182.5639648438,4153.3334960938,4172.1796875000,4163.5898437500,4163.3334960938,,,
2.9687500000,95,4175.0000000000,4182.1796875000,4166.0258789063,4186.4101562500,4172.4360351563,4168.5898437500,4171.1538085938,4172.4360351563,4191.6665039063,4187.9487304688,4156.0258789063,4168.9741210938,4165.7690429688,4165.7690429688,,,
2.9765625000,95,4167.0512695313,4173.5898437500,4157.0512695313,4181.0258789063,4168.5898437500,4159.7436523438,4168.2050781250,4174.3588867188,4173.8461914063,4176.7949218750,4145.3847656250,4161.5385742188,4165.8974609375,4138.8461914063,,,
2.9843750000,95,4162.0512695313,4173.9741210938,4152.3076171875,4177.9487304688,4163.3334960938,4150.5126953125,4168.7177734375,4178.2050781250,4163.9741210938,4157.4360351563,4138.2050781250,4153.7177734375,4161.5385742188,4134.6152343750,,,
2.9921875000,95,4162.8203125000,4172.5639648438,4152.8203125000,4174.2309570313,4160.6411132813,4152.8203125000,4172.9487304688,4175.5126953125,4168.9741210938,4157.3076171875,4135.6411132813,4153.3334960938,4146.4101562500,4143.5898437500,,,
3.0000000000,96,4167.5639648438,4179.4873046875,4163.4614257813,4180.0000000000,4167.8203125000,4160.7690429688,4168.9741210938,4173.4614257813,4164.2309570313,4164.3588867188,4151.9228515625,4160.2563476563,4150.5126953125,4140.0000000000,,,
3.0078125000,96,4170.3847656250,4177.0512695313,4164.3588867188,4182.3076171875,4168.9741210938,4158.9741210938,4170.7690429688,4175.2563476563,4160.1284179688,4160.2563476563,4155.6411132813,4164.6152343750,4164.7436523438,4141.2822265625,,,
3.0156250000,96,4174.3588867188,4177.4360351563,4166.2822265625,4185.3847656250,4171.9228515625,4165.6411132813,4171.6665039063,4175.7690429688,4161.1538085938,4154.2309570313,4143.8461914063,4165.2563476563,4157.3076171875,4146.9228515625,,,
3.0234375000,96,4174.4873046875,4191.5385742188,4173.4614257813,4188.9741210938,4174.3588867188,4172.1796875000,4166.4101562500,4173.7177734375,4159.2309570313,4148.8461914063,4149.1025390625,4168.0771484375,4140.2563476563,4153.9741210938,,,
3.0312500000,97,4176.1538085938,4184.2309570313,4166.6665039063,4185.7690429688,4171.0258789063,4168.3334960938,4173.4614257813,4172.9487304688,4161.2822265625,4148.9741210938,4151.1538085938,4169.4873046875,4133.9741210938,4156.7949218750,,,
3.0390625000,97,4173.9741210938,4180.7690429688,4167.3076171875,4197.5639648438,4185.0000000000,4179.6152343750,4166.9228515625,4173.9741210938,4179.7436523438,4169.8715820313,4159.3588867188,4169.6152343750,4158.7177734375,4152.0512695313,,,
3.0468750000,97,4169.7436523438,4173.4614257813,4157.6923828125,4183.8461914063,4176.4101562500,4176.5385742188,4171.0258789063,4178.4614257813,4179.3588867188,4171.4101562500,4147.0512695313,4161.6665039063,4161.1538085938,4138.4614257813,,,
3.0546875000,97,4164.3588867188,4166.0258789063,4146.2822265625,4166.6665039063,4168.7177734375,4172.8203125000,4169.2309570313,4172.6923828125,4178.8461914063,4172.5639648438,4133.9741210938,4157.8203125000,4143.7177734375,4141.1538085938,,,
3.0625000000,98,4168.2050781250,4164.4873046875,4152.0512695313,4169.4873046875,4169.2309570313,4166.7949218750,4171.6665039063,4175.5126953125,4172.0512695313,4168.5898437500,4157.5639648438,4167.3076171875,4149.1025390625,4143.2050781250,,,
3.0703125000,98,4167.4360351563,4170.0000000000,4166.7949218750,4176.9228515625,4168.8461914063,4166.0258789063,4169.3588867188,4176.5385742188,4185.8974609375,4181.5385742188,4201.1538085938,4175.6411132813,4180.6411132813,4156.1538085938,,,
3.0781250000,98,4167.8203125000,4159.6152343750,4163.3334960938,4163.9741210938,4157.9487304688,4160.2563476563,4174.1025390625,4175.7690429688,4185.2563476563,4180.7690429688,4191.6665039063,4171.2822265625,4168.3334960938,4155.1284179688,,,
3.0859375000,98,4168.3334960938,4168.4614257813,4167.0512695313,4164.7436523438,4166.9228515625,4167.3076171875,4167.3076171875,4172.4360351563,4172.6923828125,4174.8715820313,4192.0512695313,4174.8715820313,4165.1284179688,4158.0771484375,,,
3.0937500000,99,4171.5385742188,4165.8974609375,4163.4614257813,4163.4614257813,4170.0000000000,4166.7949218750,4172.0512695313,4175.6411132813,4169.6152343750,4177.1796875000,4198.7177734375,4179.7436523438,4172.9487304688,4161.1538085938,,,
3.1015625000,99,4173.7177734375,4166.1538085938,4166.6665039063,4165.1284179688,4175.1284179688,4168.2050781250,4168.2050781250,4178.0771484375,4177.3076171875,4180.5126953125,4190.3847656250,4177.8203125000,4166.5385742188,4158.0771484375,,,
3.1093750000,99,4174.2309570313,4174.4873046875,4170.8974609375,4161.4101562500,4169.2309570313,4161.4101562500,4169.1025390625,4177.6923828125,4173.2050781250,4166.6665039063,4187.9487304688,4178.9741210938,4166.5385742188,4155.1284179688,,,
3.1171875000,99,4172.3076171875,4167.0512695313,4162.5639648438,4154.4873046875,4161.5385742188,4159.4873046875,4167.4360351563,4172.1796875000,4175.7690429688,4168.0771484375,4192.1796875000,4174.4873046875,4172.9487304688,4154.2309570313,,,
3.1250000000,100,4171.4101562500,4160.1284179688,4158.5898437500,4154.2309570313,4162.6923828125,4161.7949218750,4165.7690429688,4173.4614257813,4174.2309570313,4169.7436523438,4188.2050781250,4168.3334960938,4159.3588867188,4145.3847656250,,,
3.1328125000,100,4167.1796875000,4165.7690429688,4158.3334960938,4149.6152343750,4161.2822265625,4157.3076171875,4173.7177734375,4177.3076171875,4167.9487304688,4158.4614257813,4183.2050781250,4171.0258789063,4152.9487304688,4146.4101562500,,,
3.1406250000,100,4158.0771484375,4158.9741210938,4152.0512695313,4143.4614257813,4162.0512695313,4158.0771484375,4172.6923828125,4171.6665039063,4172.0512695313,4164.8715820313,4175.3847656250,4168.9741210938,4154.3588867188,4145.0000000000,,,
3.1484375000,100,4160.2563476563,4153.9741210938,4151.6665039063,4147.5639648438,4161.9228515625,4157.9487304688,4171.0258789063,4174.2309570313,4162.9487304688,4163.0771484375,4176.9228515625,4166.7949218750,4147.8203125000,4133.4614257813,,,
3.1562500000,101,4163.7177734375,4164.6152343750,4159.8715820313,4149.7436523438,4161.4101562500,4156.6665039063,4171.5385742188,4175.8974609375,4162.5639648438,4162.1796875000,4190.0000000000,4176.2822265625,4153.8461914063,4139.1025390625,,,
3.1640625000,101,4165.0000000000,4159.4873046875,4159.1025390625,4141.1538085938,4162.6923828125,4155.3847656250,4174.6152343750,4174.7436523438,4165.8974609375,4164.1025390625,4180.6411132813,4177.8203125000,4156.4101562500,4138.4614257813,,,
3.1718750000,101,4158.4614257813,4160.0000000000,4159.7436523438,4145.5126953125,4170.8974609375,4159.7436523438,4164.6152343750,4173.9741210938,4167.6923828125,4164.1025390625,4183.8461914063,4173.8461914063,4171.6665039063,4137.9487304688,,,
3.1796875000,101,4159.1025390625,4155.7690429688,4153.9741210938,4141.4101562500,4160.7690429688,4154.2309570313,4171.6665039063,4177.4360351563,4160.2563476563,4155.2563476563,4182.4360351563,4173.2050781250,4166.9228515625,4136.1538085938,,,
3.1875000000,102,4163.9741210938,4164.3588867188,4165.5126953125,4151.7949218750,4165.7690429688,4158.9741210938,4166.6665039063,4172.8203125000,4163.3334960938,4164.3588867188,4191.6665039063,4178.2050781250,4161.9228515625,4140.2563476563,,,
3.1953125000,102,4168.3334960938,4164.7436523438,4169.8715820313,4154.6152343750,4159.7436523438,4147.9487304688,4170.0000000000,4173.8461914063,4154.7436523438,4161.4101562500,4197.1796875000,4182.5639648438,4164.7436523438,4142.3076171875,,,
3.2031250000,102,4167.4360351563,4167.6923828125,4172.6923828125,4162.8203125000,4158.2050781250,4149.7436523438,4162.4360351563,4172.6923828125,4156.2822265625,4163.8461914063,4200.3847656250,4188.4614257813,4171.0258789063,4149.6152343750,,,
3.2109375000,102,4175.7690429688,4173.9741210938,4190.6411132813,4183.3334960938,4160.5126953125,4153.3334960938,4162.8203125000,4175.0000000000,4153.4614257813,4160.7690429688,4211.5385742188,4201.1538085938,4171.7949218750,4151.0258789063,,,
3.2187500000,103,4185.3847656250,4191.0258789063,4216.1538085938,4207.8203125000,4164.8715820313,4154.8715820313,4168.5898437500,4171.5385742188,4165.0000000000,4166.9228515625,4243.0771484375,4218.2050781250,4195.5126953125,4173.2050781250,,,
3.2265625000,103,4192.5639648438,4201.5385742188,4228.7177734375,4219.8715820313,4163.7177734375,4154.6152343750,4171.2822265625,4168.7177734375,4173.5898437500,4176.9228515625,4255.5126953125,4228.3334960938,4199.7436523438,4183.5898437500,,,
3.2343750000,103,4195.1284179688,4213.7177734375,4243.0771484375,4235.7690429688,4162.3076171875,4151.4101562500,4164.1025390625,4172.3076171875,4161.1538085938,4174.4873046875,4269.6152343750,4237.6923828125,4198.2050781250,4176.5385742188,,,
3.2421875000,103,4191.1538085938,4211.0258789063,4245.0000000000,4242.4360351563,4151.0258789063,4138.2050781250,4165.6411132813,4174.7436523438,4150.8974609375,4164.3588867188,4282.3076171875,4245.0000000000,4206.4101562500,4172.3076171875,,,
3.2500000000,104,4189.4873046875,4205.8974609375,4247.5639648438,4249.7436523438,4150.3847656250,4138.7177734375,4162.5639648438,4171.9228515625,4150.3847656250,4158.7177734375,4276.2822265625,4243.5898437500,4191.9228515625,4168.4614257813,,,
3.2578125000,104,4195.3847656250,4217.1796875000,4263.7177734375,4267.1796875000,4157.3076171875,4144.8715820313,4161.1538085938,4171.7949218750,4153.2050781250,4159.7436523438,4287.5639648438,4251.1538085938,4188.5898437500,4174.6152343750,,,
3.2656250000,104,4198.5898437500,4214.3588867188,4263.7177734375,4265.8974609375,4156.9228515625,4143.5898437500,4169.8715820313,4175.5126953125,4155.8974609375,4163.9741210938,4301.0258789063,4260.0000000000,4204.2309570313,4181.6665039063,,,
3.2734375000,104,4190.2563476563,4205.1284179688,4252.9487304688,4254.8715820313,4162.8203125000,4149.3588867188,4160.6411132813,4175.1284179688,4159.3588867188,4170.0000000000,4297.8203125000,4253.4614257813,4212.3076171875,4177.1796875000,,,
3.2812500000,105,4190.7690429688,4197.8203125000,4238.2050781250,4239.6152343750,4155.7690429688,4143.3334960938,4163.3334960938,4174.8715820313,4152.5639648438,4162.0512695313,4282.1796875000,4241.2822265625,4201.7949218750,4170.0000000000,,,
3.2890625000,105,4193.4614257813,4204.4873046875,4232.6923828125,4232.9487304688,4158.7177734375,4149.2309570313,4164.7436523438,4170.2563476563,4157.3076171875,4165.7690429688,4272.6923828125,4237.4360351563,4185.6411132813,4175.8974609375,,,
3.2968750000,105,4189.2309570313,4203.7177734375,4223.5898437500,4217.6923828125,4160.8974609375,4152.6923828125,4169.3588867188,4176.6665039063,4154.2309570313,4162.8203125000,4259.8715820313,4234.8715820313,4176.5385742188,4171.0258789063,,,
3.3046875000,105,4179.8715820313,4200.7690429688,4216.1538085938,4208.3334960938,4164.2309570313,4156.4101562500,4168.4614257813,4175.1284179688,4171.4101562500,4180.3847656250,4262.8203125000,4231.0258789063,4208.4614257813,4174.8715820313,,,
3.3125000000,106,4183.5898437500,4182.5639648438,4203.2050781250,4193.8461914063,4160.2563476563,4152.5639648438,4173.9741210938,4171.7949218750,4173.0771484375,4185.2563476563,4248.5898437500,4221.2822265625,4210.3847656250,4165.6411132813,,,
3.3203125000,106,4177.0512695313,4174.7436523438,4197.3076171875,4178.7177734375,4160.2563476563,4152.6923828125,4165.3847656250,4172.8203125000,4159.6152343750,4171.1538085938,4235.5126953125,4211.4101562500,4189.1025390625,4160.2563476563,,,
3.3281250000,106,4168.2050781250,4168.3334960938,4186.2822265625,4161.6665039063,4149.4873046875,4143.8461914063,4171.5385742188,4176.6665039063,4156.7949218750,4163.8461914063,4221.2822265625,4206.2822265625,4175.2563476563,4156.9228515625,,,
3.3359375000,106,4169.6152343750,4174.8715820313,4183.4614257813,4166.5385742188,4154.7436523438,4147.5639648438,4167.4360351563,4172.1796875000,4165.2563476563,4175.6411132813,4219.4873046875,4201.1538085938,4169.2309570313,4149.4873046875,,,
3.3437500000,107,4170.6411132813,4162.5639648438,4168.4614257813,4154.8715820313,4148.5898437500,4141.7949218750,4167.8203125000,4172.6923828125,4151.6665039063,4161.4101562500,4207.5639648438,4188.3334960938,4155.7690429688,4136.0258789063,,,
3.3515625000,107,4163.2050781250,4151.6665039063,4155.3847656250,4141.5385742188,4146.9228515625,4144.7436523438,4164.3588867188,4172.1796875000,4151.2822265625,4152.1796875000,4189.3588867188,4177.9487304688,4152.1796875000,4133.8461914063,,,
3.3593750000,107,4162.5639648438,4164.2309570313,4165.0000000000,4148.8461914063,4155.8974609375,4152.6923828125,4160.7690429688,4173.7177734375,4148.2050781250,4148.3334960938,4180.7690429688,4179.8715820313,4132.0512695313,4134.2309570313,,,
3.3671875000,107,4165.2563476563,4166.0258789063,4168.0771484375,4148.3334960938,4148.4614257813,4144.1025390625,4164.7436523438,4175.0000000000,4135.7690429688,4138.9741210938,4182.1796875000,4179.7436523438,4124.7436523438,4137.0512695313,,,
3.3750000000,108,4163.8461914063,4150.5126953125,4158.2050781250,4141.1538085938,4140.6411132813,4139.7436523438,4165.0000000000,4171.6665039063,4142.0512695313,4144.8715820313,4179.7436523438,4172.4360351563,4146.4101562500,4131.6665039063,,,
3.3828125000,108,4160.5126953125,4148.3334960938,4152.9487304688,4141.1538085938,4141.0258789063,4142.8203125000,4167.5639648438,4176.0258789063,4142.0512695313,4143.7177734375,4178.2050781250,4168.3334960938,4154.2309570313,4123.8461914063,,,
3.3906250000,108,4149.7436523438,4148.3334960938,4146.1538085938,4136.7949218750,4136.5385742188,4142.0512695313,4170.6411132813,4176.6665039063,4140.3847656250,4141.1538085938,4180.3847656250,4166.5385742188,4148.7177734375,4131.4101562500,,,
3.3984375000,108,4152.3076171875,4140.2563476563,4143.9741210938,4133.4614257813,4133.4614257813,4143.2050781250,4168.4614257813,4172.9487304688,4142.0512695313,4144.3588867188,4172.8203125000,4165.0000000000,4138.2050781250,4128.9741210938,,,
3.4062500000,109,4159.8715820313,4159.3588867188,4157.8203125000,4150.6411132813,4145.7690429688,4147.3076171875,4158.5898437500,4170.7690429688,4152.4360351563,4159.7436523438,4197.0512695313,4175.5126953125,4158.3334960938,4133.8461914063,,,
3.4140625000,109,4165.8974609375,4169.8715820313,4161.1538085938,4162.9487304688,4145.3847656250,4138.7177734375,4169.7436523438,4174.2309570313,4155.2563476563,4167.1796875000,4215.0000000000,4186.6665039063,4171.6665039063,4142.8203125000,,,
3.4218750000,109,4170.1284179688,4182.9487304688,4186.2822265625,4196.1538085938,4154.8715820313,4148.0771484375,4162.6923828125,4172.5639648438,4158.8461914063,4171.1538085938,4233.5898437500,4203.5898437500,4178.5898437500,4150.8974609375,,,
3.4296875000,109,4181.7949218750,4190.2563476563,4212.8203125000,4217.5639648438,4149.4873046875,4146.0258789063,4165.7690429688,4175.3847656250,4148.9741210938,4161.1538085938,4261.9228515625,4225.5126953125,4181.0258789063,4159.8715820313,,,
3.4375000000,110,4186.0258789063,4199.1025390625,4227.8203125000,4234.4873046875,4148.4614257813,4143.4614257813,4163.5898437500,4171.5385742188,4150.0000000000,4169.2309570313,4286.9228515625,4239.2309570313,4192.9487304688,4176.5385742188,,,
3.4453125000,110,4193.8461914063,4210.0000000000,4245.5126953125,4260.5126953125,4147.9487304688,4134.7436523438,4163.0771484375,4175.1284179688,4138.0771484375,4163.3334960938,4291.9228515625,4251.4101562500,4201.0258789063,4174.4873046875,,,
3.4531250000,110,4202.9487304688,4226.7949218750,4271.2822265625,4287.0512695313,4147.5639648438,4134.6152343750,4161.1538085938,4176.5385742188,4137.3076171875,4158.9741210938,4311.1538085938,4271.5385742188,4214.3588867188,4189.1025390625,,,
3.4609375000,110,4205.0000000000,4222.0512695313,4275.3847656250,4288.8461914063,4143.5898437500,4136.4101562500,4164.4873046875,4174.2309570313,4140.2563476563,4160.5126953125,4310.8974609375,4277.0512695313,4198.3334960938,4196.9228515625,,,
3.4687500000,111,4198.8461914063,4220.8974609375,4276.0258789063,4292.0512695313,4146.5385742188,4137.6923828125,4157.9487304688,4173.4614257813,4134.1025390625,4154.3588867188,4305.8974609375,4270.6411132813,4190.5126953125,4188.4614257813,,,
3.4765625000,111,4194.2309570313,4215.0000000000,4272.0512695313,4290.0000000000,4138.7177734375,4134.2309570313,4163.5898437500,4176.0258789063,4131.5385742188,4146.7949218750,4308.4614257813,4270.8974609375,4211.4101562500,4181.9228515625,,,
3.4843750000,111,4194.2309570313,4208.8461914063,4268.2050781250,4285.6411132813,4137.4360351563,4141.9228515625,4165.8974609375,4175.2563476563,4137.4360351563,4148.0771484375,4305.7690429688,4272.3076171875,4210.5126953125,4179.2309570313,,,
3.4921875000,111,4197.0512695313,4211.4101562500,4271.1538085938,4283.7177734375,4139.6152343750,4141.2822265625,4162.8203125000,4174.6152343750,4138.0771484375,4149.1025390625,4302.0512695313,4270.7690429688,4190.7690429688,4182.0512695313,,,
3.5000000000,112,4205.1284179688,4207.6923828125,4267.1796875000,4274.1025390625,4137.6923828125,4137.0512695313,4166.0258789063,4175.2563476563,4143.5898437500,4162.1796875000,4300.6411132813,4269.2309570313,4196.9228515625,4193.4614257813,,,
3.5078125000,112,4203.8461914063,4201.1538085938,4257.4360351563,4260.0000000000,4142.3076171875,4146.2822265625,4165.1284179688,4172.9487304688,4154.3588867188,4177.6923828125,4295.8974609375,4266.5385742188,4215.8974609375,4196.9228515625,,,
3.5156250000,112,4192.4360351563,4190.8974609375,4238.8461914063,4235.5126953125,4136.9228515625,4140.6411132813,4170.8974609375,4173.5898437500,4149.6152343750,4167.6923828125,4278.5898437500,4254.7436523438,4208.8461914063,4185.3847656250,,,
3.5234375000,112,4180.7690429688,4188.4614257813,4223.0771484375,4224.2309570313,4143.5898437500,4147.0512695313,4163.8461914063,4170.1284179688,4156.4101562500,4176.2822265625,4263.4614257813,4238.0771484375,4198.0771484375,4173.4614257813,,,
3.5312500000,113,4177.1796875000,4181.1538085938,4208.9741210938,4215.7690429688,4147.4360351563,4153.2050781250,4164.1025390625,4174.4873046875,4148.7177734375,4173.7177734375,4242.1796875000,4222.5639648438,4184.8715820313,4157.8203125000,,,
3.5390625000,113,4170.8974609375,4176.4101562500,4199.2309570313,4202.3076171875,4142.0512695313,4146.5385742188,4164.1025390625,4174.1025390625,4145.2563476563,4164.3588867188,4229.1025390625,4214.2309570313,4182.4360351563,4164.3588867188,,,
3.5468750000,113,4180.5126953125,4170.1284179688,4193.8461914063,4190.6411132813,4139.1025390625,4141.5385742188,4169.7436523438,4175.1284179688,4144.4873046875,4167.0512695313,4218.7177734375,4213.2050781250,4174.8715820313,4167.5639648438,,,
3.5546875000,113,4190.1284179688,4181.0258789063,4203.7177734375,4198.4614257813,4157.1796875000,4157.9487304688,4162.9487304688,4174.1025390625,4155.7690429688,4185.2563476563,4230.7690429688,4217.0512695313,4177.8203125000,4173.2050781250,,,
3.5625000000,114,4187.8203125000,4174.6152343750,4193.9741210938,4187.1796875000,4153.3334960938,4153.7177734375,4168.9741210938,4174.6152343750,4159.2309570313,4178.3334960938,4213.5898437500,4206.6665039063,4161.2822265625,4170.0000000000,,,
3.5703125000,114,4181.1538085938,4173.3334960938,4183.0771484375,4179.2309570313,4156.1538085938,4156.2822265625,4163.4614257813,4172.1796875000,4164.1025390625,4175.1284179688,4190.7690429688,4192.1796875000,4158.3334960938,4162.4360351563,,,
3.5781250000,114,4184.8715820313,4173.9741210938,4175.0000000000,4175.8974609375,4167.1796875000,4167.4360351563,4172.0512695313,4175.1284179688,4166.0258789063,4181.1538085938,4193.4614257813,4189.3588867188,4177.3076171875,4155.5126953125,,,
3.5859375000,114,4191.9228515625,4177.3076171875,4176.7949218750,4182.6923828125,4186.9228515625,4185.6411132813,4176.5385742188,4173.5898437500,4180.8974609375,4193.2050781250,4204.7436523438,4193.7177734375,4186.6665039063,4166.4101562500,,,
3.5937500000,115,4195.7690429688,4181.1538085938,4181.0258789063,4184.4873046875,4190.7690429688,4185.8974609375,4176.1538085938,4175.0000000000,4183.4614257813,4189.7436523438,4196.2822265625,4194.7436523438,4172.5639648438,4171.9228515625,,,
3.6015625000,115,4193.5898437500,4181.4101562500,4178.7177734375,4177.6923828125,4181.5385742188,4178.4614257813,4176.7949218750,4173.3334960938,4177.8203125000,4191.1538085938,4193.4614257813,4191.9228515625,4174.6152343750,4175.0000000000,,,
3.6093750000,115,4191.6665039063,4175.1284179688,4171.5385742188,4172.5639648438,4181.6665039063,4184.1025390625,4174.1025390625,4168.9741210938,4181.0258789063,4198.9741210938,4194.6152343750,4188.5898437500,4177.5639648438,4171.9228515625,,,
3.6171875000,115,4190.7690429688,4169.6152343750,4164.3588867188,4164.8715820313,4182.1796875000,4182.9487304688,4170.7690429688,4172.6923828125,4180.6411132813,4187.3076171875,4186.5385742188,4183.4614257813,4164.4873046875,4160.8974609375,,,
3.6250000000,116,4184.4873046875,4161.4101562500,4156.2822265625,4150.8974609375,4173.8461914063,4170.2563476563,4171.6665039063,4172.4360351563,4182.4360351563,4187.9487304688,4178.8461914063,4176.7949218750,4164.2309570313,4158.5898437500,,,
3.6328125000,116,4182.0512695313,4150.1284179688,4145.0000000000,4141.5385742188,4165.5126953125,4164.8715820313,4172.5639648438,4171.6665039063,4175.2563476563,4192.9487304688,4168.4614257813,4168.2050781250,4162.8203125000,4150.3847656250,,,
3.6406250000,116,4174.2309570313,4150.2563476563,4136.5385742188,4135.8974609375,4161.0258789063,4165.7690429688,4164.2309570313,4172.6923828125,4172.8203125000,4186.1538085938,4170.0000000000,4163.3334960938,4165.5126953125,4151.4101562500,,,
3.6484375000,116,4170.1284179688,4141.1538085938,4128.9741210938,4120.2563476563,4153.8461914063,4161.7949218750,4171.1538085938,4174.6152343750,4177.9487304688,4182.9487304688,4164.2309570313,4159.1025390625,4164.8715820313,4151.0258789063,,,
3.6562500000,117,4171.7949218750,4147.5639648438,4138.9741210938,4126.9228515625,4168.9741210938,4174.6152343750,4166.7949218750,4171.1538085938,4183.0771484375,4196.5385742188,4165.5126953125,4160.7690429688,4161.1538085938,4148.0771484375,,,
3.6640625000,117,4173.5898437500,4141.5385742188,4131.2822265625,4117.5639648438,4161.1538085938,4166.0258789063,4170.8974609375,4173.2050781250,4165.8974609375,4182.4360351563,4155.3847656250,4159.2309570313,4139.7436523438,4146.0258789063,,,
3.6718750000,117,4164.8715820313,4137.6923828125,4119.4873046875,4108.7177734375,4155.0000000000,4164.3588867188,4165.3847656250,4170.1284179688,4168.0771484375,4180.3847656250,4151.2822265625,4153.0771484375,4141.6665039063,4146.2822265625,,,
3.6796875000,117,4163.5898437500,4145.3847656250,4121.5385742188,4115.6411132813,4156.5385742188,4165.3847656250,4170.6411132813,4174.4873046875,4167.1796875000,4180.0000000000,4153.2050781250,4151.5385742188,4154.8715820313,4132.6923828125,,,
3.6875000000,118,4160.0000000000,4146.9228515625,4123.0771484375,4118.5898437500,4156.2822265625,4159.6152343750,4169.7436523438,4174.1025390625,4168.7177734375,4178.4614257813,4152.0512695313,4147.5639648438,4150.2563476563,4133.9741210938,,,
3.6953125000,118,4154.1025390625,4124.4873046875,4108.3334960938,4102.0512695313,4144.3588867188,4148.5898437500,4166.6665039063,4173.2050781250,4159.1025390625,4162.4360351563,4123.9741210938,4131.7949218750,4118.3334960938,4120.7690429688,,,
3.7031250000,118,4148.4614257813,4132.4360351563,4110.0000000000,4107.0512695313,4145.8974609375,4152.1796875000,4160.8974609375,4175.1284179688,4154.7436523438,4156.1538085938,4123.3334960938,4127.1796875000,4125.7690429688,4113.4614257813,,,
3.7109375000,118,4147.8203125000,4140.3847656250,4109.2309570313,4113.0771484375,4142.6923828125,4149.1025390625,4169.1025390625,4174.6152343750,4162.1796875000,4167.9487304688,4131.1538085938,4134.4873046875,4139.2309570313,4123.9741210938,,,
3.7187500000,119,4151.6665039063,4131.9228515625,4109.3588867188,4111.6665039063,4144.1025390625,4152.3076171875,4164.7436523438,4171.9228515625,4166.1538085938,4174.4873046875,4125.5126953125,4132.8203125000,4128.7177734375,4126.1538085938,,,
3.7265625000,119,4154.7436523438,4130.0000000000,4116.9228515625,4110.5126953125,4146.1538085938,4153.7177734375,4162.1796875000,4175.7690429688,4159.2309570313,4159.2309570313,4125.1284179688,4132.3076171875,4128.3334960938,4121.7949218750,,,
3.7343750000,119,4153.5898437500,4132.3076171875,4120.8974609375,4114.7436523438,4145.7690429688,4151.1538085938,4166.9228515625,4176.6665039063,4158.2050781250,4156.9228515625,4130.2563476563,4140.2563476563,4136.0258789063,4129.3588867188,,,
3.7421875000,119,4148.4614257813,4129.1025390625,4116.4101562500,4111.5385742188,4144.7436523438,4153.0771484375,4162.8203125000,4174.6152343750,4155.8974609375,4161.1538085938,4122.9487304688,4135.7690429688,4126.7949218750,4125.7690429688,,,
3.7500000000,120,4146.1538085938,4118.2050781250,4102.9487304688,4092.6923828125,4133.4614257813,4147.8203125000,4164.8715820313,4174.7436523438,4147.4360351563,4148.9741210938,4105.5126953125,4121.5385742188,4109.2309570313,4117.9487304688,,,
3.7578125000,120,4146.5385742188,4117.4360351563,4102.5639648438,4095.1281738281,4137.6923828125,4150.8974609375,4162.3076171875,4169.6152343750,4159.6152343750,4159.7436523438,4113.2050781250,4123.0771484375,4113.5898437500,4125.5126953125,,,
3.7656250000,120,4149.4873046875,4119.8715820313,4106.0258789063,4101.4101562500,4141.7949218750,4151.4101562500,4168.7177734375,4172.6923828125,4160.3847656250,4164.2309570313,4129.2309570313,4129.4873046875,4124.4873046875,4122.4360351563,,,
3.7734375000,120,4140.6411132813,4119.7436523438,4102.1796875000,4091.0256347656,4139.2309570313,4152.1796875000,4167.6923828125,4170.3847656250,4164.3588867188,4166.0258789063,4133.2050781250,4125.3847656250,4137.5639648438,4122.0512695313,,,
3.7812500000,121,4141.7949218750,4111.2822265625,4093.4614257813,4078.5898437500,4133.8461914063,4149.7436523438,4166.4101562500,4170.1284179688,4159.6152343750,4166.0258789063,4118.3334960938,4121.9228515625,4129.3588867188,4115.6411132813,,,
3.7890625000,121,4149.1025390625,4121.0258789063,4101.7949218750,4091.1538085938,4141.1538085938,4152.9487304688,4158.2050781250,4173.3334960938,4156.5385742188,4170.7690429688,4129.6152343750,4127.6923828125,4135.0000000000,4121.5385742188,,,
3.7968750000,121,4151.4101562500,4115.1284179688,4102.3076171875,4089.4870605469,4136.6665039063,4149.7436523438,4167.3076171875,4175.3847656250,4157.3076171875,4165.1284179688,4127.4360351563,4126.1538085938,4134.2309570313,4124.6152343750,,,
3.8046875000,121,4144.4873046875,4117.1796875000,4104.2309570313,4093.0769042969,4143.8461914063,4157.9487304688,4162.6923828125,4170.1284179688,4161.2822265625,4165.1284179688,4123.9741210938,4121.1538085938,4130.1284179688,4119.6152343750,,,
3.8125000000,122,4145.1284179688,4115.1284179688,4097.3076171875,4086.7949218750,4138.3334960938,4147.3076171875,4167.1796875000,4173.8461914063,4145.5126953125,4155.8974609375,4120.8974609375,4117.3076171875,4123.0771484375,4113.3334960938,,,
3.8203125000,122,4145.6411132813,4111.1538085938,4093.4614257813,4085.2563476563,4137.6923828125,4149.3588867188,4164.2309570313,4173.0771484375,4150.8974609375,4163.3334960938,4117.8203125000,4114.7436523438,4123.5898437500,4120.7690429688,,,
3.8281250000,122,4142.9487304688,4111.6665039063,4097.8203125000,4091.2819824219,4140.1284179688,4154.8715820313,4163.3334960938,4173.8461914063,4156.6665039063,4161.9228515625,4113.5898437500,4114.7436523438,4122.6923828125,4114.3588867188,,,
3.8359375000,122,4143.7177734375,4120.6411132813,4103.4614257813,4093.8461914063,4143.9741210938,4153.4614257813,4166.5385742188,4173.4614257813,4156.1538085938,4156.0258789063,4118.7177734375,4117.0512695313,4131.4101562500,4116.4101562500,,,
